%OpenBCI Raw EEG Data
%Number of channels = 8
%Sample Rate = 250 Hz
%Board = OpenBCI_GUI$BoardCytonSerial
0, -67.0000, -39.0000, -26.0000, -20.0000, -56.0000, -30.0000, -53.0000, -11.0000, 0.0000, 0.0000, 0.0000, 0.0000, 0.0000, 0.0000, 0.0000, 0.0000, 0.0000, 0.0000,0.0,0.0,0.0,1705312800000,10:00:00.000
1, -72.9742, -49.3952, -49.0187, -27.9775, -50.1976, -27.2151, -59.2579, -5.7117, 0.0000, 0.0000, 0.0000, 0.0000, 0.0000, 0.0000, 0.0000, 0.0000, 0.0000, 0.0000,0.0,0.0,0.0,1705312800004,10:00:00.004
2, -61.5931, -46.8148, -54.9168, -26.4138, -30.5780, -16.3955, -48.5102, 6.3338, 0.0000, 0.0000, 0.0000, 0.0000, 0.0000, 0.0000, 0.0000, 0.0000, 0.0000, 0.0000,0.0,0.0,0.0,1705312800008,10:00:00.008
3, -71.9076, -50.1729, -43.8740, -19.9590, -35.5794, -19.1818, -45.2163, 16.7651, 0.0000, 0.0000, 0.0000, 0.0000, 0.0000, 0.0000, 0.0000, 0.0000, 0.0000, 0.0000,0.0,0.0,0.0,1705312800012,10:00:00.012
4, -81.4920, -54.9413, -29.2525, -12.2320, -39.7393, -21.4666, -39.0799, 27.3946, 0.0000, 0.0000, 0.0000, 0.0000, 0.0000, 0.0000, 0.0000, 0.0000, 0.0000, 0.0000,0.0,0.0,0.0,1705312800016,10:00:00.016
5, -72.4505, -52.9811, -17.9416, -6.6782, -28.3237, -12.9558, -24.2652, 37.8120, 0.0000, 0.0000, 0.0000, 0.0000, 0.0000, 0.0000, 0.0000, 0.0000, 0.0000, 0.0000,0.0,0.0,0.0,1705312800020,10:00:00.020
6, -70.0177, -51.7178, -12.2491, -4.4419, -27.8403, -8.6020, -14.3195, 40.8365, 0.0000, 0.0000, 0.0000, 0.0000, 0.0000, 0.0000, 0.0000, 0.0000, 0.0000, 0.0000,0.0,0.0,0.0,1705312800024,10:00:00.024
7, -79.3537, -52.2772, -13.4822, -1.7652, -34.2303, -10.6300, -9.2065, 34.8926, 0.0000, 0.0000, 0.0000, 0.0000, 0.0000, 0.0000, 0.0000, 0.0000, 0.0000, 0.0000,0.0,0.0,0.0,1705312800028,10:00:00.028
8, -81.5397, -47.8146, -14.6847, 4.4329, -23.8801, -6.4630, -1.3440, 28.1949, 0.0000, 0.0000, 0.0000, 0.0000, 0.0000, 0.0000, 0.0000, 0.0000, 0.0000, 0.0000,0.0,0.0,0.0,1705312800032,10:00:00.032
9, -76.1347, -43.0443, -6.7971, 13.0507, -8.6969, 6.1592, 7.0796, 29.9472, 0.0000, 0.0000, 0.0000, 0.0000, 0.0000, 0.0000, 0.0000, 0.0000, 0.0000, 0.0000,0.0,0.0,0.0,1705312800036,10:00:00.036
10, -70.9732, -44.5492, 5.2141, 19.0901, -4.5365, 21.1805, 14.8983, 39.0778, 0.0000, 0.0000, 0.0000, 0.0000, 0.0000, 0.0000, 0.0000, 0.0000, 0.0000, 0.0000,0.0,0.0,0.0,1705312800040,10:00:00.040
11, -67.8661, -43.5878, 7.7763, 16.5817, -1.6433, 25.6646, 21.2574, 45.1476, 0.0000, 0.0000, 0.0000, 0.0000, 0.0000, 0.0000, 0.0000, 0.0000, 0.0000, 0.0000,0.0,0.0,0.0,1705312800044,10:00:00.044
12, -64.3113, -28.6776, 1.1076, 8.5564, 6.5384, 9.0216, 22.3166, 44.6531, 0.0000, 0.0000, 0.0000, 0.0000, 0.0000, 0.0000, 0.0000, 0.0000, 0.0000, 0.0000,0.0,0.0,0.0,1705312800048,10:00:00.048
13, -50.2869, -5.4155, -0.3389, 5.3821, 14.5780, -12.7444, 22.4829, 43.7029, 0.0000, 0.0000, 0.0000, 0.0000, 0.0000, 0.0000, 0.0000, 0.0000, 0.0000, 0.0000,0.0,0.0,0.0,1705312800052,10:00:00.052
14, -31.7106, 7.8160, 5.7259, 5.2338, 15.3565, -20.7909, 24.9571, 40.4982, 0.0000, 0.0000, 0.0000, 0.0000, 0.0000, 0.0000, 0.0000, 0.0000, 0.0000, 0.0000,0.0,0.0,0.0,1705312800056,10:00:00.056
15, -30.9241, 2.8667, 3.4014, -4.7775, 4.5325, -26.0363, 20.9620, 27.2822, 0.0000, 0.0000, 0.0000, 0.0000, 0.0000, 0.0000, 0.0000, 0.0000, 0.0000, 0.0000,0.0,0.0,0.0,1705312800060,10:00:00.060
16, -36.4554, -6.8322, -10.4740, -22.2866, -4.8195, -32.0029, 9.5721, 10.1429, 0.0000, 0.0000, 0.0000, 0.0000, 0.0000, 0.0000, 0.0000, 0.0000, 0.0000, 0.0000,0.0,0.0,0.0,1705312800064,10:00:00.064
17, -20.6337, -3.4644, -14.7626, -27.5616, 4.6342, -17.4020, 2.3676, 4.2083, 0.0000, 0.0000, 0.0000, 0.0000, 0.0000, 0.0000, 0.0000, 0.0000, 0.0000, 0.0000,0.0,0.0,0.0,1705312800068,10:00:00.068
18, -0.0455, 13.3323, 2.6111, -10.8175, 21.3743, 13.2911, 3.1448, 14.8513, 0.0000, 0.0000, 0.0000, 0.0000, 0.0000, 0.0000, 0.0000, 0.0000, 0.0000, 0.0000,0.0,0.0,0.0,1705312800072,10:00:00.072
19, 2.3799, 29.0420, 26.2959, 17.0969, 27.7817, 31.7544, 8.8211, 37.2626, 0.0000, 0.0000, 0.0000, 0.0000, 0.0000, 0.0000, 0.0000, 0.0000, 0.0000, 0.0000,0.0,0.0,0.0,1705312800076,10:00:00.076
20, 1.9071, 34.0713, 39.3238, 41.8174, 32.8951, 35.6982, 18.1048, 61.8787, 0.0000, 0.0000, 0.0000, 0.0000, 0.0000, 0.0000, 0.0000, 0.0000, 0.0000, 0.0000,0.0,0.0,0.0,1705312800080,10:00:00.080
21, 3.7028, 33.3447, 42.4798, 59.1662, 42.9206, 35.0218, 25.3744, 76.3489, 0.0000, 0.0000, 0.0000, 0.0000, 0.0000, 0.0000, 0.0000, 0.0000, 0.0000, 0.0000,0.0,0.0,0.0,1705312800084,10:00:00.084
22, -6.9622, 32.8437, 41.6910, 68.6086, 41.7508, 25.2438, 24.4251, 75.1254, 0.0000, 0.0000, 0.0000, 0.0000, 0.0000, 0.0000, 0.0000, 0.0000, 0.0000, 0.0000,0.0,0.0,0.0,1705312800088,10:00:00.088
23, -21.2829, 27.6175, 34.9739, 65.9274, 22.6126, 12.1032, 16.6675, 64.3583, 0.0000, 0.0000, 0.0000, 0.0000, 0.0000, 0.0000, 0.0000, 0.0000, 0.0000, 0.0000,0.0,0.0,0.0,1705312800092,10:00:00.092
24, -28.8907, 16.6920, 19.0744, 53.4461, -0.2560, 11.6269, 5.2297, 52.7284, 0.0000, 0.0000, 0.0000, 0.0000, 0.0000, 0.0000, 0.0000, 0.0000, 0.0000, 0.0000,0.0,0.0,0.0,1705312800096,10:00:00.096
25, -40.0000, 10.0000, 2.0000, 44.0000, -13.0000, 18.0000, -7.0000, 45.0000, 0.0000, 0.0000, 0.0000, 0.0000, 0.0000, 0.0000, 0.0000, 0.0000, 0.0000, 0.0000,0.0,0.0,0.0,1705312800100,10:00:00.100
26, -51.1717, 4.0812, -4.0136, 39.7697, -15.6715, 13.0147, -15.7459, 41.5733, 0.0000, 0.0000, 0.0000, 0.0000, 0.0000, 0.0000, 0.0000, 0.0000, 0.0000, 0.0000,0.0,0.0,0.0,1705312800104,10:00:00.104
27, -53.0456, -15.2362, -5.2537, 25.9039, -19.4063, -4.1373, -21.0739, 38.2303, 0.0000, 0.0000, 0.0000, 0.0000, 0.0000, 0.0000, 0.0000, 0.0000, 0.0000, 0.0000,0.0,0.0,0.0,1705312800108,10:00:00.108
28, -55.4202, -38.1726, -18.5604, -0.6841, -25.8495, -16.6822, -23.2300, 32.6466, 0.0000, 0.0000, 0.0000, 0.0000, 0.0000, 0.0000, 0.0000, 0.0000, 0.0000, 0.0000,0.0,0.0,0.0,1705312800112,10:00:00.112
29, -57.0795, -42.8420, -34.7552, -20.1513, -17.3484, -9.4746, -16.6678, 29.8926, 0.0000, 0.0000, 0.0000, 0.0000, 0.0000, 0.0000, 0.0000, 0.0000, 0.0000, 0.0000,0.0,0.0,0.0,1705312800116,10:00:00.116
30, -44.8769, -31.9326, -27.6828, -18.3395, 8.2985, 11.9524, -2.2957, 33.7568, 0.0000, 0.0000, 0.0000, 0.0000, 0.0000, 0.0000, 0.0000, 0.0000, 0.0000, 0.0000,0.0,0.0,0.0,1705312800120,10:00:00.120
31, -31.7246, -19.6307, -2.3863, -4.9542, 20.1038, 26.7060, 8.6997, 39.2338, 0.0000, 0.0000, 0.0000, 0.0000, 0.0000, 0.0000, 0.0000, 0.0000, 0.0000, 0.0000,0.0,0.0,0.0,1705312800124,10:00:00.124
32, -35.3343, -10.8858, 10.9121, 3.0856, 3.2744, 27.9453, 10.9794, 40.3273, 0.0000, 0.0000, 0.0000, 0.0000, 0.0000, 0.0000, 0.0000, 0.0000, 0.0000, 0.0000,0.0,0.0,0.0,1705312800128,10:00:00.128
33, -45.5546, -9.2538, 5.2536, 2.6725, -12.0391, 25.6527, 9.8929, 38.8099, 0.0000, 0.0000, 0.0000, 0.0000, 0.0000, 0.0000, 0.0000, 0.0000, 0.0000, 0.0000,0.0,0.0,0.0,1705312800132,10:00:00.132
34, -47.8246, -10.0059, -1.6863, 3.2522, -2.2950, 23.5484, 11.9950, 40.4024, 0.0000, 0.0000, 0.0000, 0.0000, 0.0000, 0.0000, 0.0000, 0.0000, 0.0000, 0.0000,0.0,0.0,0.0,1705312800136,10:00:00.136
35, -40.2034, -1.4035, 0.2464, 8.7784, 9.4987, 17.8029, 17.7789, 44.4348, 0.0000, 0.0000, 0.0000, 0.0000, 0.0000, 0.0000, 0.0000, 0.0000, 0.0000, 0.0000,0.0,0.0,0.0,1705312800140,10:00:00.140
36, -28.3895, 7.1355, 7.4566, 12.0109, -2.2347, 6.0901, 19.8798, 42.5869, 0.0000, 0.0000, 0.0000, 0.0000, 0.0000, 0.0000, 0.0000, 0.0000, 0.0000, 0.0000,0.0,0.0,0.0,1705312800144,10:00:00.144
37, -25.7540, 2.0507, 12.1092, 9.6574, -16.0661, -9.0956, 14.5607, 31.9506, 0.0000, 0.0000, 0.0000, 0.0000, 0.0000, 0.0000, 0.0000, 0.0000, 0.0000, 0.0000,0.0,0.0,0.0,1705312800148,10:00:00.148
38, -32.0755, -0.2605, 11.1042, 6.7108, 0.2718, -14.5403, 11.5673, 21.4437, 0.0000, 0.0000, 0.0000, 0.0000, 0.0000, 0.0000, 0.0000, 0.0000, 0.0000, 0.0000,0.0,0.0,0.0,1705312800152,10:00:00.152
39, -26.8701, 11.2521, 13.4960, 4.2133, 31.4958, -4.7088, 16.6200, 17.1647, 0.0000, 0.0000, 0.0000, 0.0000, 0.0000, 0.0000, 0.0000, 0.0000, 0.0000, 0.0000,0.0,0.0,0.0,1705312800156,10:00:00.156
40, -13.8093, 15.5317, 24.8441, -0.3203, 42.7667, -0.1510, 19.4528, 13.2592, 0.0000, 0.0000, 0.0000, 0.0000, 0.0000, 0.0000, 0.0000, 0.0000, 0.0000, 0.0000,0.0,0.0,0.0,1705312800160,10:00:00.160
41, -23.3637, 3.3710, 29.7434, -6.3951, 35.4999, -7.9129, 14.7977, 6.5368, 0.0000, 0.0000, 0.0000, 0.0000, 0.0000, 0.0000, 0.0000, 0.0000, 0.0000, 0.0000,0.0,0.0,0.0,1705312800164,10:00:00.164
42, -55.2258, -10.0754, 15.2049, -12.9915, 27.3580, -1.7451, 11.0688, 5.7524, 0.0000, 0.0000, 0.0000, 0.0000, 0.0000, 0.0000, 0.0000, 0.0000, 0.0000, 0.0000,0.0,0.0,0.0,1705312800168,10:00:00.168
43, -77.4268, -18.8453, -7.3566, -15.0409, 20.0393, 19.9344, 12.3555, 16.7647, 0.0000, 0.0000, 0.0000, 0.0000, 0.0000, 0.0000, 0.0000, 0.0000, 0.0000, 0.0000,0.0,0.0,0.0,1705312800172,10:00:00.172
44, -77.5006, -23.6823, -24.8386, -5.7606, 15.2602, 24.5027, 14.1768, 29.2440, 0.0000, 0.0000, 0.0000, 0.0000, 0.0000, 0.0000, 0.0000, 0.0000, 0.0000, 0.0000,0.0,0.0,0.0,1705312800176,10:00:00.176
45, -68.9352, -24.2053, -38.8748, 5.8258, 10.4496, 9.4114, 9.8844, 26.2727, 0.0000, 0.0000, 0.0000, 0.0000, 0.0000, 0.0000, 0.0000, 0.0000, 0.0000, 0.0000,0.0,0.0,0.0,1705312800180,10:00:00.180
46, -65.9115, -30.5215, -50.9616, 4.2015, -11.0519, -0.3888, -7.6838, 4.0654, 0.0000, 0.0000, 0.0000, 0.0000, 0.0000, 0.0000, 0.0000, 0.0000, 0.0000, 0.0000,0.0,0.0,0.0,1705312800184,10:00:00.184
47, -69.3018, -43.2886, -57.3283, -4.9189, -38.3177, -0.8183, -34.1911, -22.9891, 0.0000, 0.0000, 0.0000, 0.0000, 0.0000, 0.0000, 0.0000, 0.0000, 0.0000, 0.0000,0.0,0.0,0.0,1705312800188,10:00:00.188
48, -61.4592, -42.6039, -52.1964, -5.9313, -35.1728, 3.2089, -51.2793, -38.7420, 0.0000, 0.0000, 0.0000, 0.0000, 0.0000, 0.0000, 0.0000, 0.0000, 0.0000, 0.0000,0.0,0.0,0.0,1705312800192,10:00:00.192
49, -30.0046, -25.1250, -27.5536, 2.6423, -8.8225, 12.8275, -51.3625, -40.8507, 0.0000, 0.0000, 0.0000, 0.0000, 0.0000, 0.0000, 0.0000, 0.0000, 0.0000, 0.0000,0.0,0.0,0.0,1705312800196,10:00:00.196
50, -2.0000, -11.0000, 8.0000, 14.0000, 2.0000, 18.0000, -45.0000, -36.0000, 0.0000, 0.0000, 0.0000, 0.0000, 0.0000, 0.0000, 0.0000, 0.0000, 0.0000, 0.0000,0.0,0.0,0.0,1705312800200,10:00:00.200
51, -13.6990, -10.9864, 23.6533, 17.2670, -5.7424, 12.5637, -40.6176, -29.9025, 0.0000, 0.0000, 0.0000, 0.0000, 0.0000, 0.0000, 0.0000, 0.0000, 0.0000, 0.0000,0.0,0.0,0.0,1705312800204,10:00:00.204
52, -49.1030, -21.1153, 9.4508, 2.5895, -17.7997, 7.2559, -41.0336, -28.2304, 0.0000, 0.0000, 0.0000, 0.0000, 0.0000, 0.0000, 0.0000, 0.0000, 0.0000, 0.0000,0.0,0.0,0.0,1705312800208,10:00:00.208
53, -60.2966, -29.0604, -6.2850, -15.0872, -37.2377, 3.6946, -49.5000, -35.5551, 0.0000, 0.0000, 0.0000, 0.0000, 0.0000, 0.0000, 0.0000, 0.0000, 0.0000, 0.0000,0.0,0.0,0.0,1705312800212,10:00:00.212
54, -41.1812, -19.6212, -4.7939, -10.9695, -54.1656, -2.6698, -60.7736, -47.5022, 0.0000, 0.0000, 0.0000, 0.0000, 0.0000, 0.0000, 0.0000, 0.0000, 0.0000, 0.0000,0.0,0.0,0.0,1705312800216,10:00:00.216
55, -26.6393, -0.7894, 1.4519, 5.7687, -49.0674, -5.0866, -63.6972, -54.0983, 0.0000, 0.0000, 0.0000, 0.0000, 0.0000, 0.0000, 0.0000, 0.0000, 0.0000, 0.0000,0.0,0.0,0.0,1705312800220,10:00:00.220
56, -30.0969, 2.8628, 1.7292, 10.7798, -34.7097, -6.9730, -57.8942, -52.8895, 0.0000, 0.0000, 0.0000, 0.0000, 0.0000, 0.0000, 0.0000, 0.0000, 0.0000, 0.0000,0.0,0.0,0.0,1705312800224,10:00:00.224
57, -36.6495, -5.1141, -2.9777, 7.0149, -34.2262, -18.0347, -50.4512, -49.1296, 0.0000, 0.0000, 0.0000, 0.0000, 0.0000, 0.0000, 0.0000, 0.0000, 0.0000, 0.0000,0.0,0.0,0.0,1705312800228,10:00:00.228
58, -40.6965, -2.3001, -13.2180, 7.6039, -39.2246, -22.0952, -42.2494, -43.5982, 0.0000, 0.0000, 0.0000, 0.0000, 0.0000, 0.0000, 0.0000, 0.0000, 0.0000, 0.0000,0.0,0.0,0.0,1705312800232,10:00:00.232
59, -41.8895, 9.7326, -21.5807, 14.1096, -29.1950, -5.8842, -30.8024, -31.8107, 0.0000, 0.0000, 0.0000, 0.0000, 0.0000, 0.0000, 0.0000, 0.0000, 0.0000, 0.0000,0.0,0.0,0.0,1705312800236,10:00:00.236
60, -34.1721, 14.6865, -14.4411, 25.4556, -5.4310, 6.4533, -18.6222, -16.8537, 0.0000, 0.0000, 0.0000, 0.0000, 0.0000, 0.0000, 0.0000, 0.0000, 0.0000, 0.0000,0.0,0.0,0.0,1705312800240,10:00:00.240
61, -29.2003, 8.3854, 1.8819, 30.7815, 12.6454, -2.9504, -11.8076, -9.9235, 0.0000, 0.0000, 0.0000, 0.0000, 0.0000, 0.0000, 0.0000, 0.0000, 0.0000, 0.0000,0.0,0.0,0.0,1705312800244,10:00:00.244
62, -41.7603, -0.9216, 8.6987, 15.5745, 15.2406, -13.9047, -11.7704, -12.0703, 0.0000, 0.0000, 0.0000, 0.0000, 0.0000, 0.0000, 0.0000, 0.0000, 0.0000, 0.0000,0.0,0.0,0.0,1705312800248,10:00:00.248
63, -51.1198, 1.3136, 7.2511, -4.5528, 17.4251, -8.0751, -10.6191, -8.4322, 0.0000, 0.0000, 0.0000, 0.0000, 0.0000, 0.0000, 0.0000, 0.0000, 0.0000, 0.0000,0.0,0.0,0.0,1705312800252,10:00:00.252
64, -37.2632, 17.0273, 12.3585, -3.7010, 31.0961, 4.4403, -1.7111, 9.6169, 0.0000, 0.0000, 0.0000, 0.0000, 0.0000, 0.0000, 0.0000, 0.0000, 0.0000, 0.0000,0.0,0.0,0.0,1705312800256,10:00:00.256
65, -22.2136, 24.2421, 23.0826, 7.3949, 36.5329, 6.8450, 7.2918, 28.2075, 0.0000, 0.0000, 0.0000, 0.0000, 0.0000, 0.0000, 0.0000, 0.0000, 0.0000, 0.0000,0.0,0.0,0.0,1705312800260,10:00:00.260
66, -24.3421, 11.8784, 22.2761, 5.3938, 15.4800, -1.7492, 4.0215, 28.4494, 0.0000, 0.0000, 0.0000, 0.0000, 0.0000, 0.0000, 0.0000, 0.0000, 0.0000, 0.0000,0.0,0.0,0.0,1705312800264,10:00:00.264
67, -32.3977, -2.4050, -0.1185, -4.6740, -13.2197, -7.2184, -10.7823, 10.9860, 0.0000, 0.0000, 0.0000, 0.0000, 0.0000, 0.0000, 0.0000, 0.0000, 0.0000, 0.0000,0.0,0.0,0.0,1705312800268,10:00:00.268
68, -42.8527, -7.5530, -30.2981, -7.1507, -25.0284, -3.5841, -27.0813, -8.8692, 0.0000, 0.0000, 0.0000, 0.0000, 0.0000, 0.0000, 0.0000, 0.0000, 0.0000, 0.0000,0.0,0.0,0.0,1705312800272,10:00:00.272
69, -53.8232, -7.5251, -40.7495, 0.5516, -24.8271, -6.2174, -39.9202, -23.1439, 0.0000, 0.0000, 0.0000, 0.0000, 0.0000, 0.0000, 0.0000, 0.0000, 0.0000, 0.0000,0.0,0.0,0.0,1705312800276,10:00:00.276
70, -48.1689, -1.0330, -25.3025, 9.4114, -27.0335, -23.9053, -50.3167, -34.7055, 0.0000, 0.0000, 0.0000, 0.0000, 0.0000, 0.0000, 0.0000, 0.0000, 0.0000, 0.0000,0.0,0.0,0.0,1705312800280,10:00:00.280
71, -32.6025, 7.2481, -9.6946, 5.4731, -26.7731, -38.5956, -56.8368, -43.7096, 0.0000, 0.0000, 0.0000, 0.0000, 0.0000, 0.0000, 0.0000, 0.0000, 0.0000, 0.0000,0.0,0.0,0.0,1705312800284,10:00:00.284
72, -30.3668, 7.8589, -9.2558, -7.1107, -9.9852, -34.6231, -54.0112, -45.8539, 0.0000, 0.0000, 0.0000, 0.0000, 0.0000, 0.0000, 0.0000, 0.0000, 0.0000, 0.0000,0.0,0.0,0.0,1705312800288,10:00:00.288
73, -28.0482, 12.7023, -2.4883, -0.5789, 13.3485, -21.4130, -41.3371, -42.4843, 0.0000, 0.0000, 0.0000, 0.0000, 0.0000, 0.0000, 0.0000, 0.0000, 0.0000, 0.0000,0.0,0.0,0.0,1705312800292,10:00:00.292
74, -9.0544, 31.6899, 25.7775, 28.0970, 11.3839, -13.8700, -28.5159, -40.1169, 0.0000, 0.0000, 0.0000, 0.0000, 0.0000, 0.0000, 0.0000, 0.0000, 0.0000, 0.0000,0.0,0.0,0.0,1705312800296,10:00:00.296
75, -0.0000, 42.0000, 48.0000, 42.0000, -18.0000, -13.0000, -25.0000, -42.0000, 0.0000, 0.0000, 0.0000, 0.0000, 0.0000, 0.0000, 0.0000, 0.0000, 0.0000, 0.0000,0.0,0.0,0.0,1705312800300,10:00:00.300
76, -15.7263, 28.3419, 37.1730, 26.1237, -37.2031, -11.9224, -30.1368, -47.2757, 0.0000, 0.0000, 0.0000, 0.0000, 0.0000, 0.0000, 0.0000, 0.0000, 0.0000, 0.0000,0.0,0.0,0.0,1705312800304,10:00:00.304
77, -28.1539, 12.8981, 14.0616, 10.1048, -32.0965, -11.4610, -39.3382, -53.9182, 0.0000, 0.0000, 0.0000, 0.0000, 0.0000, 0.0000, 0.0000, 0.0000, 0.0000, 0.0000,0.0,0.0,0.0,1705312800308,10:00:00.308
78, -23.1983, 13.2495, 10.9234, 12.1265, -27.7216, -20.2545, -49.8160, -59.4866, 0.0000, 0.0000, 0.0000, 0.0000, 0.0000, 0.0000, 0.0000, 0.0000, 0.0000, 0.0000,0.0,0.0,0.0,1705312800312,10:00:00.312
79, -13.0607, 18.9008, 21.3952, 17.0954, -30.3420, -32.8073, -56.3439, -61.8135, 0.0000, 0.0000, 0.0000, 0.0000, 0.0000, 0.0000, 0.0000, 0.0000, 0.0000, 0.0000,0.0,0.0,0.0,1705312800316,10:00:00.316
80, 1.2669, 21.9032, 27.4498, 17.0161, -21.5335, -29.8601, -52.5156, -57.8674, 0.0000, 0.0000, 0.0000, 0.0000, 0.0000, 0.0000, 0.0000, 0.0000, 0.0000, 0.0000,0.0,0.0,0.0,1705312800320,10:00:00.320
81, 18.9814, 26.6604, 36.2964, 22.4506, -4.2849, -14.6403, -38.3784, -45.7236, 0.0000, 0.0000, 0.0000, 0.0000, 0.0000, 0.0000, 0.0000, 0.0000, 0.0000, 0.0000,0.0,0.0,0.0,1705312800324,10:00:00.324
82, 23.7939, 29.8765, 51.0053, 31.7372, 4.3876, -11.3956, -21.1750, -32.3747, 0.0000, 0.0000, 0.0000, 0.0000, 0.0000, 0.0000, 0.0000, 0.0000, 0.0000, 0.0000,0.0,0.0,0.0,1705312800328,10:00:00.328
83, 12.2392, 24.3986, 51.1875, 29.2760, 7.9793, -22.3214, -9.5253, -29.5410, 0.0000, 0.0000, 0.0000, 0.0000, 0.0000, 0.0000, 0.0000, 0.0000, 0.0000, 0.0000,0.0,0.0,0.0,1705312800332,10:00:00.332
84, -1.1494, 15.9596, 31.1983, 14.1923, 17.3314, -32.4964, -7.9321, -39.2205, 0.0000, 0.0000, 0.0000, 0.0000, 0.0000, 0.0000, 0.0000, 0.0000, 0.0000, 0.0000,0.0,0.0,0.0,1705312800336,10:00:00.336
85, -10.5658, 12.0148, 7.2513, -1.0736, 22.7250, -43.4595, -16.5900, -56.6171, 0.0000, 0.0000, 0.0000, 0.0000, 0.0000, 0.0000, 0.0000, 0.0000, 0.0000, 0.0000,0.0,0.0,0.0,1705312800340,10:00:00.340
86, -17.2510, 7.6119, -16.5520, -12.6251, 5.1415, -57.7622, -35.4654, -79.4996, 0.0000, 0.0000, 0.0000, 0.0000, 0.0000, 0.0000, 0.0000, 0.0000, 0.0000, 0.0000,0.0,0.0,0.0,1705312800344,10:00:00.344
87, -15.6602, 2.5332, -38.7622, -18.5699, -30.4896, -62.8625, -61.8793, -99.9698, 0.0000, 0.0000, 0.0000, 0.0000, 0.0000, 0.0000, 0.0000, 0.0000, 0.0000, 0.0000,0.0,0.0,0.0,1705312800348,10:00:00.348
88, -5.2491, 9.8386, -43.3179, -12.4756, -55.9066, -58.8674, -86.2410, -105.7406, 0.0000, 0.0000, 0.0000, 0.0000, 0.0000, 0.0000, 0.0000, 0.0000, 0.0000, 0.0000,0.0,0.0,0.0,1705312800352,10:00:00.352
89, 3.6512, 29.7352, -31.7196, -4.0960, -60.9894, -61.4887, -101.3386, -100.3458, 0.0000, 0.0000, 0.0000, 0.0000, 0.0000, 0.0000, 0.0000, 0.0000, 0.0000, 0.0000,0.0,0.0,0.0,1705312800356,10:00:00.356
90, 7.8453, 45.1878, -25.1583, -10.9985, -62.3122, -70.5333, -109.2141, -97.6918, 0.0000, 0.0000, 0.0000, 0.0000, 0.0000, 0.0000, 0.0000, 0.0000, 0.0000, 0.0000,0.0,0.0,0.0,1705312800360,10:00:00.360
91, 13.3129, 49.5780, -22.1838, -24.0641, -63.9404, -72.3394, -110.4227, -97.7650, 0.0000, 0.0000, 0.0000, 0.0000, 0.0000, 0.0000, 0.0000, 0.0000, 0.0000, 0.0000,0.0,0.0,0.0,1705312800364,10:00:00.364
92, 16.5432, 44.4576, -11.8544, -25.5680, -58.8603, -66.1147, -102.8720, -94.5616, 0.0000, 0.0000, 0.0000, 0.0000, 0.0000, 0.0000, 0.0000, 0.0000, 0.0000, 0.0000,0.0,0.0,0.0,1705312800368,10:00:00.368
93, 8.6141, 25.1310, -8.2792, -25.3473, -60.5392, -63.2870, -95.4843, -94.8303, 0.0000, 0.0000, 0.0000, 0.0000, 0.0000, 0.0000, 0.0000, 0.0000, 0.0000, 0.0000,0.0,0.0,0.0,1705312800372,10:00:00.372
94, -5.2854, 0.9073, -21.0392, -36.5616, -77.9617, -67.0130, -100.4817, -103.5094, 0.0000, 0.0000, 0.0000, 0.0000, 0.0000, 0.0000, 0.0000, 0.0000, 0.0000, 0.0000,0.0,0.0,0.0,1705312800376,10:00:00.376
95, -13.8106, -4.3123, -34.5581, -47.4427, -90.1583, -64.2798, -112.5182, -108.5065, 0.0000, 0.0000, 0.0000, 0.0000, 0.0000, 0.0000, 0.0000, 0.0000, 0.0000, 0.0000,0.0,0.0,0.0,1705312800380,10:00:00.380
96, -15.8871, 10.2962, -39.6937, -43.0467, -84.4621, -45.9358, -115.3645, -97.9801, 0.0000, 0.0000, 0.0000, 0.0000, 0.0000, 0.0000, 0.0000, 0.0000, 0.0000, 0.0000,0.0,0.0,0.0,1705312800384,10:00:00.384
97, -12.0422, 25.5867, -35.7334, -22.8584, -71.1315, -26.1474, -102.6638, -76.0003, 0.0000, 0.0000, 0.0000, 0.0000, 0.0000, 0.0000, 0.0000, 0.0000, 0.0000, 0.0000,0.0,0.0,0.0,1705312800388,10:00:00.388
98, 1.5835, 36.5624, -15.1992, 3.4907, -51.3152, -17.6072, -78.2650, -52.1512, 0.0000, 0.0000, 0.0000, 0.0000, 0.0000, 0.0000, 0.0000, 0.0000, 0.0000, 0.0000,0.0,0.0,0.0,1705312800392,10:00:00.392
99, 20.7651, 45.7073, 14.6059, 21.4683, -20.6826, -5.1729, -46.1151, -28.6892, 0.0000, 0.0000, 0.0000, 0.0000, 0.0000, 0.0000, 0.0000, 0.0000, 0.0000, 0.0000,0.0,0.0,0.0,1705312800396,10:00:00.396
100, 33.0000, 48.0000, 35.0000, 31.0000, 13.0000, 23.0000, -9.0000, -2.0000, 0.0000, 0.0000, 0.0000, 0.0000, 0.0000, 0.0000, 0.0000, 0.0000, 0.0000, 0.0000,0.0,0.0,0.0,1705312800400,10:00:00.400
101, 34.0173, 45.9624, 49.9486, 49.6114, 44.7208, 51.3648, 29.0672, 30.3243, 0.0000, 0.0000, 0.0000, 0.0000, 0.0000, 0.0000, 0.0000, 0.0000, 0.0000, 0.0000,0.0,0.0,0.0,1705312800404,10:00:00.404
102, 36.4869, 49.3824, 70.5575, 76.1467, 74.4388, 67.8119, 62.9603, 64.9091, 0.0000, 0.0000, 0.0000, 0.0000, 0.0000, 0.0000, 0.0000, 0.0000, 0.0000, 0.0000,0.0,0.0,0.0,1705312800408,10:00:00.408
103, 53.3369, 54.8599, 89.2640, 88.0781, 94.5974, 74.0745, 86.9859, 92.5381, 0.0000, 0.0000, 0.0000, 0.0000, 0.0000, 0.0000, 0.0000, 0.0000, 0.0000, 0.0000,0.0,0.0,0.0,1705312800412,10:00:00.412
104, 67.9291, 49.7744, 99.5010, 80.7883, 97.6487, 66.6893, 95.3812, 104.5466, 0.0000, 0.0000, 0.0000, 0.0000, 0.0000, 0.0000, 0.0000, 0.0000, 0.0000, 0.0000,0.0,0.0,0.0,1705312800416,10:00:00.416
105, 51.0467, 33.3516, 99.1478, 66.0199, 80.2017, 49.6093, 84.5537, 100.0772, 0.0000, 0.0000, 0.0000, 0.0000, 0.0000, 0.0000, 0.0000, 0.0000, 0.0000, 0.0000,0.0,0.0,0.0,1705312800420,10:00:00.420
106, 16.9869, 19.0228, 77.7246, 48.4557, 44.0531, 36.7085, 57.2976, 82.9933, 0.0000, 0.0000, 0.0000, 0.0000, 0.0000, 0.0000, 0.0000, 0.0000, 0.0000, 0.0000,0.0,0.0,0.0,1705312800424,10:00:00.424
107, 3.8979, 13.1442, 40.4060, 31.8581, 8.1711, 23.0594, 23.5855, 55.4122, 0.0000, 0.0000, 0.0000, 0.0000, 0.0000, 0.0000, 0.0000, 0.0000, 0.0000, 0.0000,0.0,0.0,0.0,1705312800428,10:00:00.428
108, 4.6554, 3.1775, 10.5214, 16.9600, -8.9106, 0.6309, -5.8917, 23.1319, 0.0000, 0.0000, 0.0000, 0.0000, 0.0000, 0.0000, 0.0000, 0.0000, 0.0000, 0.0000,0.0,0.0,0.0,1705312800432,10:00:00.432
109, -3.9224, -16.5934, -9.3344, -3.5436, -19.0869, -16.8507, -26.8431, -2.7094, 0.0000, 0.0000, 0.0000, 0.0000, 0.0000, 0.0000, 0.0000, 0.0000, 0.0000, 0.0000,0.0,0.0,0.0,1705312800436,10:00:00.436
110, -7.2040, -28.1053, -30.4961, -23.4195, -42.5351, -29.2420, -42.4725, -21.1441, 0.0000, 0.0000, 0.0000, 0.0000, 0.0000, 0.0000, 0.0000, 0.0000, 0.0000, 0.0000,0.0,0.0,0.0,1705312800440,10:00:00.440
111, -1.9786, -23.5539, -47.7877, -31.2687, -72.6501, -53.8123, -57.9944, -41.3654, 0.0000, 0.0000, 0.0000, 0.0000, 0.0000, 0.0000, 0.0000, 0.0000, 0.0000, 0.0000,0.0,0.0,0.0,1705312800444,10:00:00.444
112, -13.7421, -21.0420, -56.2116, -38.7384, -88.3945, -75.4995, -72.6773, -61.3598, 0.0000, 0.0000, 0.0000, 0.0000, 0.0000, 0.0000, 0.0000, 0.0000, 0.0000, 0.0000,0.0,0.0,0.0,1705312800448,10:00:00.448
113, -30.7542, -28.3607, -61.1281, -53.5625, -83.7201, -70.0187, -81.5957, -72.1084, 0.0000, 0.0000, 0.0000, 0.0000, 0.0000, 0.0000, 0.0000, 0.0000, 0.0000, 0.0000,0.0,0.0,0.0,1705312800452,10:00:00.452
114, -27.5672, -36.5374, -60.3191, -60.0606, -74.3072, -54.6664, -85.7817, -76.7748, 0.0000, 0.0000, 0.0000, 0.0000, 0.0000, 0.0000, 0.0000, 0.0000, 0.0000, 0.0000,0.0,0.0,0.0,1705312800456,10:00:00.456
115, -23.4938, -43.9317, -53.9319, -56.9224, -73.2399, -47.1853, -88.4328, -77.3500, 0.0000, 0.0000, 0.0000, 0.0000, 0.0000, 0.0000, 0.0000, 0.0000, 0.0000, 0.0000,0.0,0.0,0.0,1705312800460,10:00:00.460
116, -28.5279, -46.8973, -49.5339, -55.6328, -66.1577, -35.8626, -83.9422, -63.9579, 0.0000, 0.0000, 0.0000, 0.0000, 0.0000, 0.0000, 0.0000, 0.0000, 0.0000, 0.0000,0.0,0.0,0.0,1705312800464,10:00:00.464
117, -22.7627, -38.8792, -40.1464, -49.1913, -41.7495, -26.6487, -68.4467, -39.3518, 0.0000, 0.0000, 0.0000, 0.0000, 0.0000, 0.0000, 0.0000, 0.0000, 0.0000, 0.0000,0.0,0.0,0.0,1705312800468,10:00:00.468
118, -20.2962, -33.5435, -21.6016, -38.9493, -25.1012, -35.4555, -51.8283, -20.7380, 0.0000, 0.0000, 0.0000, 0.0000, 0.0000, 0.0000, 0.0000, 0.0000, 0.0000, 0.0000,0.0,0.0,0.0,1705312800472,10:00:00.472
119, -36.3510, -41.5722, -14.1802, -41.9489, -30.0226, -41.4797, -42.0409, -10.7984, 0.0000, 0.0000, 0.0000, 0.0000, 0.0000, 0.0000, 0.0000, 0.0000, 0.0000, 0.0000,0.0,0.0,0.0,1705312800476,10:00:00.476
120, -39.6955, -46.0951, -22.8231, -44.6463, -29.1076, -26.1754, -33.9972, -1.6316, 0.0000, 0.0000, 0.0000, 0.0000, 0.0000, 0.0000, 0.0000, 0.0000, 0.0000, 0.0000,0.0,0.0,0.0,1705312800480,10:00:00.480
121, -29.2920, -42.2017, -24.5354, -26.7936, -14.9247, -10.3714, -24.1530, 5.1956, 0.0000, 0.0000, 0.0000, 0.0000, 0.0000, 0.0000, 0.0000, 0.0000, 0.0000, 0.0000,0.0,0.0,0.0,1705312800484,10:00:00.484
122, -43.2327, -48.6364, -17.3109, -12.5883, -14.0692, -5.5073, -16.2048, 8.3741, 0.0000, 0.0000, 0.0000, 0.0000, 0.0000, 0.0000, 0.0000, 0.0000, 0.0000, 0.0000,0.0,0.0,0.0,1705312800488,10:00:00.488
123, -66.5969, -63.2768, -18.3639, -20.8714, -27.0683, 2.2738, -11.4606, 12.3190, 0.0000, 0.0000, 0.0000, 0.0000, 0.0000, 0.0000, 0.0000, 0.0000, 0.0000, 0.0000,0.0,0.0,0.0,1705312800492,10:00:00.492
124, -65.3184, -67.9723, -23.2528, -24.8531, -32.0306, 11.5993, -8.3554, 15.1403, 0.0000, 0.0000, 0.0000, 0.0000, 0.0000, 0.0000, 0.0000, 0.0000, 0.0000, 0.0000,0.0,0.0,0.0,1705312800496,10:00:00.496
125, -59.0000, -65.0000, -22.0000, -13.0000, -24.0000, 13.0000, -4.0000, 15.0000, 0.0000, 0.0000, 0.0000, 0.0000, 0.0000, 0.0000, 0.0000, 0.0000, 0.0000, 0.0000,0.0,0.0,0.0,1705312800500,10:00:00.500
126, -61.8091, -63.3739, -21.9554, -8.7344, -6.1733, 12.4746, 6.6062, 17.3040, 0.0000, 0.0000, 0.0000, 0.0000, 0.0000, 0.0000, 0.0000, 0.0000, 0.0000, 0.0000,0.0,0.0,0.0,1705312800504,10:00:00.504
127, -56.0351, -59.8038, -25.4997, -14.2409, 11.2609, 13.0228, 21.2520, 21.8305, 0.0000, 0.0000, 0.0000, 0.0000, 0.0000, 0.0000, 0.0000, 0.0000, 0.0000, 0.0000,0.0,0.0,0.0,1705312800508,10:00:00.508
128, -49.0704, -49.8016, -26.1006, -9.5999, 11.8525, 11.1559, 29.6405, 23.0800, 0.0000, 0.0000, 0.0000, 0.0000, 0.0000, 0.0000, 0.0000, 0.0000, 0.0000, 0.0000,0.0,0.0,0.0,1705312800512,10:00:00.512
129, -49.8593, -31.8827, -26.3387, 5.6877, 8.4654, 13.2397, 30.1281, 22.2958, 0.0000, 0.0000, 0.0000, 0.0000, 0.0000, 0.0000, 0.0000, 0.0000, 0.0000, 0.0000,0.0,0.0,0.0,1705312800516,10:00:00.516
130, -38.3546, -10.8985, -30.8667, 17.9442, 20.8257, 21.7920, 30.2461, 21.7105, 0.0000, 0.0000, 0.0000, 0.0000, 0.0000, 0.0000, 0.0000, 0.0000, 0.0000, 0.0000,0.0,0.0,0.0,1705312800520,10:00:00.520
131, -17.1074, 0.8049, -38.7587, 21.9179, 23.5212, 25.6580, 29.9542, 18.4855, 0.0000, 0.0000, 0.0000, 0.0000, 0.0000, 0.0000, 0.0000, 0.0000, 0.0000, 0.0000,0.0,0.0,0.0,1705312800524,10:00:00.524
132, -3.5685, 5.2257, -46.5627, 22.0889, -2.8032, 20.6660, 23.2182, 11.0751, 0.0000, 0.0000, 0.0000, 0.0000, 0.0000, 0.0000, 0.0000, 0.0000, 0.0000, 0.0000,0.0,0.0,0.0,1705312800528,10:00:00.528
133, 14.1925, 15.2973, -42.7900, 26.2598, -22.2150, 16.9203, 11.9322, 1.0923, 0.0000, 0.0000, 0.0000, 0.0000, 0.0000, 0.0000, 0.0000, 0.0000, 0.0000, 0.0000,0.0,0.0,0.0,1705312800532,10:00:00.532
134, 33.2408, 23.0145, -20.3822, 34.0261, -11.7049, 21.9808, 4.6431, -6.8139, 0.0000, 0.0000, 0.0000, 0.0000, 0.0000, 0.0000, 0.0000, 0.0000, 0.0000, 0.0000,0.0,0.0,0.0,1705312800536,10:00:00.536
135, 25.0416, 16.7515, 4.8783, 37.1562, 2.6716, 27.9735, 4.8426, -7.8066, 0.0000, 0.0000, 0.0000, 0.0000, 0.0000, 0.0000, 0.0000, 0.0000, 0.0000, 0.0000,0.0,0.0,0.0,1705312800540,10:00:00.540
136, 3.0255, 12.1289, 18.5961, 37.0553, 1.5279, 21.1909, 5.8953, -7.1148, 0.0000, 0.0000, 0.0000, 0.0000, 0.0000, 0.0000, 0.0000, 0.0000, 0.0000, 0.0000,0.0,0.0,0.0,1705312800544,10:00:00.544
137, 0.0367, 19.3755, 26.9975, 39.0446, -9.7754, 9.4748, -0.4744, -12.6070, 0.0000, 0.0000, 0.0000, 0.0000, 0.0000, 0.0000, 0.0000, 0.0000, 0.0000, 0.0000,0.0,0.0,0.0,1705312800548,10:00:00.548
138, 3.8811, 20.9012, 30.3382, 37.0125, -20.3086, 16.8873, -11.3361, -17.6707, 0.0000, 0.0000, 0.0000, 0.0000, 0.0000, 0.0000, 0.0000, 0.0000, 0.0000, 0.0000,0.0,0.0,0.0,1705312800552,10:00:00.552
139, -2.5496, 11.5173, 20.8471, 31.1548, -17.6365, 38.8685, -16.9235, -14.3753, 0.0000, 0.0000, 0.0000, 0.0000, 0.0000, 0.0000, 0.0000, 0.0000, 0.0000, 0.0000,0.0,0.0,0.0,1705312800556,10:00:00.556
140, -4.1687, 10.2374, 11.0533, 35.5299, -7.0562, 46.3249, -15.5185, -9.2951, 0.0000, 0.0000, 0.0000, 0.0000, 0.0000, 0.0000, 0.0000, 0.0000, 0.0000, 0.0000,0.0,0.0,0.0,1705312800560,10:00:00.560
141, 5.0011, 22.1830, 16.9777, 48.8570, -5.4137, 36.5908, -11.0962, -7.5838, 0.0000, 0.0000, 0.0000, 0.0000, 0.0000, 0.0000, 0.0000, 0.0000, 0.0000, 0.0000,0.0,0.0,0.0,1705312800564,10:00:00.564
142, 15.1356, 31.6174, 29.3373, 51.6467, -0.2101, 27.3001, -4.3898, -6.8425, 0.0000, 0.0000, 0.0000, 0.0000, 0.0000, 0.0000, 0.0000, 0.0000, 0.0000, 0.0000,0.0,0.0,0.0,1705312800568,10:00:00.568
143, 25.1343, 28.2980, 34.7592, 36.4223, 21.6369, 20.4285, 1.7394, -10.5872, 0.0000, 0.0000, 0.0000, 0.0000, 0.0000, 0.0000, 0.0000, 0.0000, 0.0000, 0.0000,0.0,0.0,0.0,1705312800572,10:00:00.572
144, 28.3951, 17.1129, 34.6459, 15.0857, 29.8496, 15.2384, 1.0436, -20.7577, 0.0000, 0.0000, 0.0000, 0.0000, 0.0000, 0.0000, 0.0000, 0.0000, 0.0000, 0.0000,0.0,0.0,0.0,1705312800576,10:00:00.576
145, 16.1511, 10.0518, 29.9090, 5.0712, 9.0303, 16.3145, -5.7708, -28.8943, 0.0000, 0.0000, 0.0000, 0.0000, 0.0000, 0.0000, 0.0000, 0.0000, 0.0000, 0.0000,0.0,0.0,0.0,1705312800580,10:00:00.580
146, 2.7687, 12.6859, 18.6002, 13.5276, -5.1929, 16.9366, -11.5065, -30.4099, 0.0000, 0.0000, 0.0000, 0.0000, 0.0000, 0.0000, 0.0000, 0.0000, 0.0000, 0.0000,0.0,0.0,0.0,1705312800584,10:00:00.584
147, 1.1618, 16.0260, 5.5243, 26.0921, 2.2692, 17.6742, -11.6980, -27.3848, 0.0000, 0.0000, 0.0000, 0.0000, 0.0000, 0.0000, 0.0000, 0.0000, 0.0000, 0.0000,0.0,0.0,0.0,1705312800588,10:00:00.588
148, 0.7156, 12.3445, -2.4693, 29.7512, 5.5018, 32.9861, -6.8121, -19.9545, 0.0000, 0.0000, 0.0000, 0.0000, 0.0000, 0.0000, 0.0000, 0.0000, 0.0000, 0.0000,0.0,0.0,0.0,1705312800592,10:00:00.592
149, 2.2215, 13.1899, -0.3506, 40.0376, -0.0188, 53.6334, -0.6879, -11.5860, 0.0000, 0.0000, 0.0000, 0.0000, 0.0000, 0.0000, 0.0000, 0.0000, 0.0000, 0.0000,0.0,0.0,0.0,1705312800596,10:00:00.596
150, 23.0000, 32.0000, 11.0000, 68.0000, 4.0000, 58.0000, 3.0000, -7.0000, 0.0000, 0.0000, 0.0000, 0.0000, 0.0000, 0.0000, 0.0000, 0.0000, 0.0000, 0.0000,0.0,0.0,0.0,1705312800600,10:00:00.600
151, 51.4855, 58.2068, 17.7074, 89.5268, 13.5660, 52.9185, 3.9464, -3.9309, 0.0000, 0.0000, 0.0000, 0.0000, 0.0000, 0.0000, 0.0000, 0.0000, 0.0000, 0.0000,0.0,0.0,0.0,1705312800604,10:00:00.604
152, 56.3278, 71.9634, 10.7981, 88.4756, 10.7000, 49.3607, 1.1731, -3.7111, 0.0000, 0.0000, 0.0000, 0.0000, 0.0000, 0.0000, 0.0000, 0.0000, 0.0000, 0.0000,0.0,0.0,0.0,1705312800608,10:00:00.608
153, 43.1055, 75.4140, 5.4944, 83.0587, -1.1429, 42.7443, -5.3155, -10.1663, 0.0000, 0.0000, 0.0000, 0.0000, 0.0000, 0.0000, 0.0000, 0.0000, 0.0000, 0.0000,0.0,0.0,0.0,1705312800612,10:00:00.612
154, 45.0924, 83.9198, 18.1964, 85.9442, 3.6832, 43.2060, -6.1540, -11.1098, 0.0000, 0.0000, 0.0000, 0.0000, 0.0000, 0.0000, 0.0000, 0.0000, 0.0000, 0.0000,0.0,0.0,0.0,1705312800616,10:00:00.616
155, 64.0608, 94.3680, 43.2499, 92.0732, 33.5122, 57.9182, 5.7147, 5.9696, 0.0000, 0.0000, 0.0000, 0.0000, 0.0000, 0.0000, 0.0000, 0.0000, 0.0000, 0.0000,0.0,0.0,0.0,1705312800620,10:00:00.620
156, 71.6279, 89.9636, 66.6661, 99.5838, 52.5815, 60.4688, 19.1634, 28.6864, 0.0000, 0.0000, 0.0000, 0.0000, 0.0000, 0.0000, 0.0000, 0.0000, 0.0000, 0.0000,0.0,0.0,0.0,1705312800624,10:00:00.624
157, 60.2469, 71.0483, 78.4987, 100.1862, 33.4109, 43.4141, 22.8453, 42.0678, 0.0000, 0.0000, 0.0000, 0.0000, 0.0000, 0.0000, 0.0000, 0.0000, 0.0000, 0.0000,0.0,0.0,0.0,1705312800628,10:00:00.628
158, 50.0298, 56.3429, 77.3210, 85.7780, 14.1284, 43.7286, 24.9138, 52.2001, 0.0000, 0.0000, 0.0000, 0.0000, 0.0000, 0.0000, 0.0000, 0.0000, 0.0000, 0.0000,0.0,0.0,0.0,1705312800632,10:00:00.632
159, 51.2043, 56.5402, 78.7125, 77.6511, 34.6497, 70.3524, 34.6374, 66.5883, 0.0000, 0.0000, 0.0000, 0.0000, 0.0000, 0.0000, 0.0000, 0.0000, 0.0000, 0.0000,0.0,0.0,0.0,1705312800636,10:00:00.636
160, 49.3014, 62.4428, 92.4799, 91.2141, 59.4876, 83.4105, 44.0827, 78.7833, 0.0000, 0.0000, 0.0000, 0.0000, 0.0000, 0.0000, 0.0000, 0.0000, 0.0000, 0.0000,0.0,0.0,0.0,1705312800640,10:00:00.640
161, 30.4365, 59.4537, 96.4412, 96.4176, 44.0413, 65.3838, 41.4000, 79.6205, 0.0000, 0.0000, 0.0000, 0.0000, 0.0000, 0.0000, 0.0000, 0.0000, 0.0000, 0.0000,0.0,0.0,0.0,1705312800644,10:00:00.644
162, 8.4066, 47.7677, 74.9043, 73.4888, 13.9187, 43.5898, 25.8595, 65.8663, 0.0000, 0.0000, 0.0000, 0.0000, 0.0000, 0.0000, 0.0000, 0.0000, 0.0000, 0.0000,0.0,0.0,0.0,1705312800648,10:00:00.648
163, 8.3486, 41.0148, 53.6975, 51.1216, 9.8898, 42.0939, 6.9481, 43.6949, 0.0000, 0.0000, 0.0000, 0.0000, 0.0000, 0.0000, 0.0000, 0.0000, 0.0000, 0.0000,0.0,0.0,0.0,1705312800652,10:00:00.652
164, 23.3127, 45.4622, 54.4675, 48.7412, 25.0077, 56.0430, -2.8633, 27.5434, 0.0000, 0.0000, 0.0000, 0.0000, 0.0000, 0.0000, 0.0000, 0.0000, 0.0000, 0.0000,0.0,0.0,0.0,1705312800656,10:00:00.656
165, 24.4475, 55.4427, 62.5086, 54.5283, 37.8883, 67.1947, 0.6151, 25.3814, 0.0000, 0.0000, 0.0000, 0.0000, 0.0000, 0.0000, 0.0000, 0.0000, 0.0000, 0.0000,0.0,0.0,0.0,1705312800660,10:00:00.660
166, 15.2075, 65.5381, 66.2724, 66.9868, 45.2712, 66.6646, 8.9789, 31.9736, 0.0000, 0.0000, 0.0000, 0.0000, 0.0000, 0.0000, 0.0000, 0.0000, 0.0000, 0.0000,0.0,0.0,0.0,1705312800664,10:00:00.664
167, 21.0695, 70.8762, 72.5108, 87.6019, 48.0433, 62.3148, 13.6189, 41.1347, 0.0000, 0.0000, 0.0000, 0.0000, 0.0000, 0.0000, 0.0000, 0.0000, 0.0000, 0.0000,0.0,0.0,0.0,1705312800668,10:00:00.668
168, 36.3566, 69.5328, 78.7112, 98.8677, 46.3330, 62.8827, 14.8355, 51.2854, 0.0000, 0.0000, 0.0000, 0.0000, 0.0000, 0.0000, 0.0000, 0.0000, 0.0000, 0.0000,0.0,0.0,0.0,1705312800672,10:00:00.672
169, 39.2072, 69.4252, 76.6028, 95.5997, 41.2488, 63.6701, 14.8414, 59.7054, 0.0000, 0.0000, 0.0000, 0.0000, 0.0000, 0.0000, 0.0000, 0.0000, 0.0000, 0.0000,0.0,0.0,0.0,1705312800676,10:00:00.676
170, 30.5517, 69.0202, 65.5521, 91.2200, 28.6548, 57.6769, 11.8918, 62.5357, 0.0000, 0.0000, 0.0000, 0.0000, 0.0000, 0.0000, 0.0000, 0.0000, 0.0000, 0.0000,0.0,0.0,0.0,1705312800680,10:00:00.680
171, 18.3451, 52.5724, 43.9961, 85.5755, 10.4259, 50.5756, 4.2879, 58.6517, 0.0000, 0.0000, 0.0000, 0.0000, 0.0000, 0.0000, 0.0000, 0.0000, 0.0000, 0.0000,0.0,0.0,0.0,1705312800684,10:00:00.684
172, 7.0588, 30.0556, 19.5964, 77.2981, 0.5085, 51.4906, -6.4225, 49.6564, 0.0000, 0.0000, 0.0000, 0.0000, 0.0000, 0.0000, 0.0000, 0.0000, 0.0000, 0.0000,0.0,0.0,0.0,1705312800688,10:00:00.688
173, 9.6507, 31.7729, 15.4143, 80.5442, 0.1281, 52.4606, -18.3621, 36.4516, 0.0000, 0.0000, 0.0000, 0.0000, 0.0000, 0.0000, 0.0000, 0.0000, 0.0000, 0.0000,0.0,0.0,0.0,1705312800692,10:00:00.692
174, 24.7952, 50.6141, 33.9039, 92.2785, -4.9432, 36.8173, -31.5533, 18.0017, 0.0000, 0.0000, 0.0000, 0.0000, 0.0000, 0.0000, 0.0000, 0.0000, 0.0000, 0.0000,0.0,0.0,0.0,1705312800696,10:00:00.696
175, 29.0000, 56.0000, 50.0000, 90.0000, -12.0000, 14.0000, -43.0000, -1.0000, 0.0000, 0.0000, 0.0000, 0.0000, 0.0000, 0.0000, 0.0000, 0.0000, 0.0000, 0.0000,0.0,0.0,0.0,1705312800700,10:00:00.700
176, 20.6189, 52.0206, 56.0467, 75.0993, -4.7024, 13.3454, -44.2553, -8.0988, 0.0000, 0.0000, 0.0000, 0.0000, 0.0000, 0.0000, 0.0000, 0.0000, 0.0000, 0.0000,0.0,0.0,0.0,1705312800704,10:00:00.704
177, 24.0094, 58.0292, 67.1583, 69.7973, 12.3243, 33.2739, -33.1293, -0.6620, 0.0000, 0.0000, 0.0000, 0.0000, 0.0000, 0.0000, 0.0000, 0.0000, 0.0000, 0.0000,0.0,0.0,0.0,1705312800708,10:00:00.708
178, 40.4378, 66.6657, 84.2215, 77.8239, 20.1103, 42.4364, -21.6984, 6.7987, 0.0000, 0.0000, 0.0000, 0.0000, 0.0000, 0.0000, 0.0000, 0.0000, 0.0000, 0.0000,0.0,0.0,0.0,1705312800712,10:00:00.712
179, 40.2970, 62.1287, 91.7250, 83.1942, 13.5862, 33.2503, -22.3880, 3.2484, 0.0000, 0.0000, 0.0000, 0.0000, 0.0000, 0.0000, 0.0000, 0.0000, 0.0000, 0.0000,0.0,0.0,0.0,1705312800716,10:00:00.716
180, 6.5614, 42.7874, 80.5191, 74.9680, -3.1311, 23.8808, -34.6085, -7.7712, 0.0000, 0.0000, 0.0000, 0.0000, 0.0000, 0.0000, 0.0000, 0.0000, 0.0000, 0.0000,0.0,0.0,0.0,1705312800720,10:00:00.720
181, -34.9881, 19.3309, 56.1340, 58.0300, -25.1244, 21.7136, -50.4572, -18.9637, 0.0000, 0.0000, 0.0000, 0.0000, 0.0000, 0.0000, 0.0000, 0.0000, 0.0000, 0.0000,0.0,0.0,0.0,1705312800724,10:00:00.724
182, -41.5642, 9.2937, 36.6713, 44.8214, -38.7493, 24.6035, -61.3917, -23.3601, 0.0000, 0.0000, 0.0000, 0.0000, 0.0000, 0.0000, 0.0000, 0.0000, 0.0000, 0.0000,0.0,0.0,0.0,1705312800728,10:00:00.728
183, -14.2458, 14.1655, 34.7879, 37.8001, -32.3601, 29.7273, -59.4773, -15.7343, 0.0000, 0.0000, 0.0000, 0.0000, 0.0000, 0.0000, 0.0000, 0.0000, 0.0000, 0.0000,0.0,0.0,0.0,1705312800732,10:00:00.732
184, 4.8257, 14.0806, 40.7928, 29.6320, -13.1255, 27.4904, -44.2904, -1.5709, 0.0000, 0.0000, 0.0000, 0.0000, 0.0000, 0.0000, 0.0000, 0.0000, 0.0000, 0.0000,0.0,0.0,0.0,1705312800736,10:00:00.736
185, 5.5710, 5.1646, 42.2865, 20.5771, 2.9718, 17.7780, -25.3935, 8.2793, 0.0000, 0.0000, 0.0000, 0.0000, 0.0000, 0.0000, 0.0000, 0.0000, 0.0000, 0.0000,0.0,0.0,0.0,1705312800740,10:00:00.740
186, 10.4678, 0.8990, 40.8445, 14.6762, 6.8812, 15.1580, -12.4592, 10.9889, 0.0000, 0.0000, 0.0000, 0.0000, 0.0000, 0.0000, 0.0000, 0.0000, 0.0000, 0.0000,0.0,0.0,0.0,1705312800744,10:00:00.744
187, 10.6921, -2.8943, 34.2639, 8.7856, 1.9249, 18.0517, -9.0484, 7.0859, 0.0000, 0.0000, 0.0000, 0.0000, 0.0000, 0.0000, 0.0000, 0.0000, 0.0000, 0.0000,0.0,0.0,0.0,1705312800748,10:00:00.748
188, -10.7680, -14.3585, 17.9926, 4.7660, -0.2670, 10.3573, -15.2054, -5.0527, 0.0000, 0.0000, 0.0000, 0.0000, 0.0000, 0.0000, 0.0000, 0.0000, 0.0000, 0.0000,0.0,0.0,0.0,1705312800752,10:00:00.752
189, -29.6078, -23.7043, 2.6534, 8.5984, -1.5262, -5.1634, -28.9721, -21.0882, 0.0000, 0.0000, 0.0000, 0.0000, 0.0000, 0.0000, 0.0000, 0.0000, 0.0000, 0.0000,0.0,0.0,0.0,1705312800756,10:00:00.756
190, -26.1069, -25.0454, -4.9208, 13.4908, -18.6269, -13.0297, -46.1422, -32.1970, 0.0000, 0.0000, 0.0000, 0.0000, 0.0000, 0.0000, 0.0000, 0.0000, 0.0000, 0.0000,0.0,0.0,0.0,1705312800760,10:00:00.760
191, -17.3088, -20.6090, -14.1534, 14.2154, -45.2210, -9.8891, -60.7965, -35.2695, 0.0000, 0.0000, 0.0000, 0.0000, 0.0000, 0.0000, 0.0000, 0.0000, 0.0000, 0.0000,0.0,0.0,0.0,1705312800764,10:00:00.764
192, -12.8348, -11.3652, -26.8003, 18.0682, -54.6374, -2.9403, -67.6701, -31.3834, 0.0000, 0.0000, 0.0000, 0.0000, 0.0000, 0.0000, 0.0000, 0.0000, 0.0000, 0.0000,0.0,0.0,0.0,1705312800768,10:00:00.768
193, -8.8900, -10.6458, -37.9922, 18.5312, -48.5555, -1.4930, -67.1222, -22.7911, 0.0000, 0.0000, 0.0000, 0.0000, 0.0000, 0.0000, 0.0000, 0.0000, 0.0000, 0.0000,0.0,0.0,0.0,1705312800772,10:00:00.772
194, -11.3805, -24.8977, -49.8709, 1.2830, -45.7095, -7.8129, -64.2924, -15.7811, 0.0000, 0.0000, 0.0000, 0.0000, 0.0000, 0.0000, 0.0000, 0.0000, 0.0000, 0.0000,0.0,0.0,0.0,1705312800776,10:00:00.776
195, -15.3191, -29.3554, -52.7635, -18.1268, -41.1455, -9.9509, -61.2157, -14.7049, 0.0000, 0.0000, 0.0000, 0.0000, 0.0000, 0.0000, 0.0000, 0.0000, 0.0000, 0.0000,0.0,0.0,0.0,1705312800780,10:00:00.780
196, -6.0346, -15.8259, -33.8424, -15.8214, -31.2009, -0.5618, -57.0955, -14.9168, 0.0000, 0.0000, 0.0000, 0.0000, 0.0000, 0.0000, 0.0000, 0.0000, 0.0000, 0.0000,0.0,0.0,0.0,1705312800784,10:00:00.784
197, 5.6892, -14.1675, -13.6023, -2.6935, -31.9580, 8.6396, -55.0369, -11.4094, 0.0000, 0.0000, 0.0000, 0.0000, 0.0000, 0.0000, 0.0000, 0.0000, 0.0000, 0.0000,0.0,0.0,0.0,1705312800788,10:00:00.788
198, -2.4476, -30.7752, -17.7523, 0.0147, -43.2859, 7.7055, -59.2401, -7.5290, 0.0000, 0.0000, 0.0000, 0.0000, 0.0000, 0.0000, 0.0000, 0.0000, 0.0000, 0.0000,0.0,0.0,0.0,1705312800792,10:00:00.792
199, -29.8001, -40.8651, -34.1877, -5.2497, -53.7777, 0.9402, -68.8176, -7.1599, 0.0000, 0.0000, 0.0000, 0.0000, 0.0000, 0.0000, 0.0000, 0.0000, 0.0000, 0.0000,0.0,0.0,0.0,1705312800796,10:00:00.796
200, -56.0000, -41.0000, -45.0000, -11.0000, -67.0000, -5.0000, -79.0000, -6.0000, 0.0000, 0.0000, 0.0000, 0.0000, 0.0000, 0.0000, 0.0000, 0.0000, 0.0000, 0.0000,0.0,0.0,0.0,1705312800800,10:00:00.800
201, -58.0328, -40.2219, -51.5377, -19.0376, -71.5722, -5.7679, -83.2863, 2.0075, 0.0000, 0.0000, 0.0000, 0.0000, 0.0000, 0.0000, 0.0000, 0.0000, 0.0000, 0.0000,0.0,0.0,0.0,1705312800804,10:00:00.804
202, -33.1234, -35.1391, -46.1157, -27.1205, -44.1521, -2.7743, -76.8907, 14.5044, 0.0000, 0.0000, 0.0000, 0.0000, 0.0000, 0.0000, 0.0000, 0.0000, 0.0000, 0.0000,0.0,0.0,0.0,1705312800808,10:00:00.808
203, -9.4248, -30.8432, -21.4856, -30.7560, -8.4219, -5.1443, -63.6518, 23.4085, 0.0000, 0.0000, 0.0000, 0.0000, 0.0000, 0.0000, 0.0000, 0.0000, 0.0000, 0.0000,0.0,0.0,0.0,1705312800812,10:00:00.812
204, -7.7616, -36.0680, -1.3220, -33.3267, -7.4341, -12.1946, -52.4277, 25.1836, 0.0000, 0.0000, 0.0000, 0.0000, 0.0000, 0.0000, 0.0000, 0.0000, 0.0000, 0.0000,0.0,0.0,0.0,1705312800816,10:00:00.816
205, -14.7137, -40.1836, -7.3854, -39.0757, -25.7582, -11.7211, -44.6163, 23.3996, 0.0000, 0.0000, 0.0000, 0.0000, 0.0000, 0.0000, 0.0000, 0.0000, 0.0000, 0.0000,0.0,0.0,0.0,1705312800820,10:00:00.820
206, -12.5519, -32.4699, -23.1333, -43.9988, -22.4854, -6.8107, -35.5063, 22.7970, 0.0000, 0.0000, 0.0000, 0.0000, 0.0000, 0.0000, 0.0000, 0.0000, 0.0000, 0.0000,0.0,0.0,0.0,1705312800824,10:00:00.824
207, 1.9827, -16.6629, -21.9048, -39.2192, -4.1297, -13.5954, -26.7129, 23.7463, 0.0000, 0.0000, 0.0000, 0.0000, 0.0000, 0.0000, 0.0000, 0.0000, 0.0000, 0.0000,0.0,0.0,0.0,1705312800828,10:00:00.828
208, 20.9384, -0.4338, -2.9749, -23.7713, 0.2918, -29.8490, -25.5546, 22.4253, 0.0000, 0.0000, 0.0000, 0.0000, 0.0000, 0.0000, 0.0000, 0.0000, 0.0000, 0.0000,0.0,0.0,0.0,1705312800832,10:00:00.832
209, 21.3630, 3.9565, 12.2397, -10.3033, -9.8621, -35.2189, -32.7064, 17.6665, 0.0000, 0.0000, 0.0000, 0.0000, 0.0000, 0.0000, 0.0000, 0.0000, 0.0000, 0.0000,0.0,0.0,0.0,1705312800836,10:00:00.836
210, -2.0022, -6.6318, 8.1584, -6.4783, -18.8786, -22.4556, -40.6040, 14.5954, 0.0000, 0.0000, 0.0000, 0.0000, 0.0000, 0.0000, 0.0000, 0.0000, 0.0000, 0.0000,0.0,0.0,0.0,1705312800840,10:00:00.840
211, -11.5337, -11.8182, -5.7958, -2.5757, -20.9804, -10.8059, -45.2492, 15.0036, 0.0000, 0.0000, 0.0000, 0.0000, 0.0000, 0.0000, 0.0000, 0.0000, 0.0000, 0.0000,0.0,0.0,0.0,1705312800844,10:00:00.844
212, 8.7416, -3.6612, -14.7671, 4.5268, -19.9719, -20.1438, -50.0710, 11.2125, 0.0000, 0.0000, 0.0000, 0.0000, 0.0000, 0.0000, 0.0000, 0.0000, 0.0000, 0.0000,0.0,0.0,0.0,1705312800848,10:00:00.848
213, 19.9806, -1.9973, -21.6489, 1.8877, -20.9063, -37.9812, -55.4460, -0.4655, 0.0000, 0.0000, 0.0000, 0.0000, 0.0000, 0.0000, 0.0000, 0.0000, 0.0000, 0.0000,0.0,0.0,0.0,1705312800852,10:00:00.852
214, 7.7918, -7.9024, -26.9900, -8.5461, -24.7370, -36.8318, -56.1541, -10.6685, 0.0000, 0.0000, 0.0000, 0.0000, 0.0000, 0.0000, 0.0000, 0.0000, 0.0000, 0.0000,0.0,0.0,0.0,1705312800856,10:00:00.856
215, 4.7866, -1.6426, -20.9155, -8.9001, -27.8590, -20.8369, -52.8145, -11.1049, 0.0000, 0.0000, 0.0000, 0.0000, 0.0000, 0.0000, 0.0000, 0.0000, 0.0000, 0.0000,0.0,0.0,0.0,1705312800860,10:00:00.860
216, 16.4973, 10.8987, -11.1537, -1.6124, -27.5022, -17.1106, -52.6380, -6.0779, 0.0000, 0.0000, 0.0000, 0.0000, 0.0000, 0.0000, 0.0000, 0.0000, 0.0000, 0.0000,0.0,0.0,0.0,1705312800864,10:00:00.864
217, 20.3686, 10.5301, -10.6693, -3.4692, -26.6497, -30.1488, -57.7349, -3.8186, 0.0000, 0.0000, 0.0000, 0.0000, 0.0000, 0.0000, 0.0000, 0.0000, 0.0000, 0.0000,0.0,0.0,0.0,1705312800868,10:00:00.868
218, 19.0061, 0.9019, -9.6337, -11.9924, -31.6284, -41.6000, -64.7578, -6.6954, 0.0000, 0.0000, 0.0000, 0.0000, 0.0000, 0.0000, 0.0000, 0.0000, 0.0000, 0.0000,0.0,0.0,0.0,1705312800872,10:00:00.872
219, 21.6369, -8.1981, -3.8929, -15.1225, -41.3376, -38.8934, -71.5959, -12.6069, 0.0000, 0.0000, 0.0000, 0.0000, 0.0000, 0.0000, 0.0000, 0.0000, 0.0000, 0.0000,0.0,0.0,0.0,1705312800876,10:00:00.876
220, 18.7578, -17.3744, -6.0635, -14.1520, -45.6055, -24.6834, -75.7537, -18.6364, 0.0000, 0.0000, 0.0000, 0.0000, 0.0000, 0.0000, 0.0000, 0.0000, 0.0000, 0.0000,0.0,0.0,0.0,1705312800880,10:00:00.880
221, 9.1455, -23.9121, -10.2012, -14.2629, -42.1084, -12.9657, -74.8482, -21.1783, 0.0000, 0.0000, 0.0000, 0.0000, 0.0000, 0.0000, 0.0000, 0.0000, 0.0000, 0.0000,0.0,0.0,0.0,1705312800884,10:00:00.884
222, 1.0560, -25.0199, -7.8369, -16.4841, -40.0354, -13.6595, -71.6487, -17.1544, 0.0000, 0.0000, 0.0000, 0.0000, 0.0000, 0.0000, 0.0000, 0.0000, 0.0000, 0.0000,0.0,0.0,0.0,1705312800888,10:00:00.888
223, -8.2568, -26.9798, -16.1468, -23.9499, -41.7001, -20.4609, -70.1438, -9.4478, 0.0000, 0.0000, 0.0000, 0.0000, 0.0000, 0.0000, 0.0000, 0.0000, 0.0000, 0.0000,0.0,0.0,0.0,1705312800892,10:00:00.892
224, -17.5640, -31.3499, -36.3811, -35.5367, -41.3557, -25.3427, -69.7706, -5.5297, 0.0000, 0.0000, 0.0000, 0.0000, 0.0000, 0.0000, 0.0000, 0.0000, 0.0000, 0.0000,0.0,0.0,0.0,1705312800896,10:00:00.896
225, -16.0000, -30.0000, -42.0000, -41.0000, -39.0000, -25.0000, -68.0000, -4.0000, 0.0000, 0.0000, 0.0000, 0.0000, 0.0000, 0.0000, 0.0000, 0.0000, 0.0000, 0.0000,0.0,0.0,0.0,1705312800900,10:00:00.900
226, -6.1636, -21.7100, -29.6055, -34.4684, -39.0749, -15.6541, -63.7216, 5.0081, 0.0000, 0.0000, 0.0000, 0.0000, 0.0000, 0.0000, 0.0000, 0.0000, 0.0000, 0.0000,0.0,0.0,0.0,1705312800904,10:00:00.904
227, -0.5255, -17.3508, -17.6917, -23.6713, -46.4187, -11.8548, -59.5894, 18.3368, 0.0000, 0.0000, 0.0000, 0.0000, 0.0000, 0.0000, 0.0000, 0.0000, 0.0000, 0.0000,0.0,0.0,0.0,1705312800908,10:00:00.908
228, -2.3538, -23.7705, -16.0695, -22.1932, -62.0239, -32.5195, -61.2876, 20.7305, 0.0000, 0.0000, 0.0000, 0.0000, 0.0000, 0.0000, 0.0000, 0.0000, 0.0000, 0.0000,0.0,0.0,0.0,1705312800912,10:00:00.912
229, -9.7490, -31.4095, -32.4143, -31.8289, -71.9408, -51.5949, -68.1824, 12.1374, 0.0000, 0.0000, 0.0000, 0.0000, 0.0000, 0.0000, 0.0000, 0.0000, 0.0000, 0.0000,0.0,0.0,0.0,1705312800916,10:00:00.916
230, -20.3516, -27.3533, -58.1313, -35.2562, -64.1003, -37.9837, -73.1336, 5.4949, 0.0000, 0.0000, 0.0000, 0.0000, 0.0000, 0.0000, 0.0000, 0.0000, 0.0000, 0.0000,0.0,0.0,0.0,1705312800920,10:00:00.920
231, -28.7125, -16.7392, -62.8780, -23.8950, -54.2498, -21.1543, -77.1878, 0.2756, 0.0000, 0.0000, 0.0000, 0.0000, 0.0000, 0.0000, 0.0000, 0.0000, 0.0000, 0.0000,0.0,0.0,0.0,1705312800924,10:00:00.924
232, -31.8659, -14.1453, -50.3411, -19.1777, -57.8743, -26.7505, -86.6842, -11.6352, 0.0000, 0.0000, 0.0000, 0.0000, 0.0000, 0.0000, 0.0000, 0.0000, 0.0000, 0.0000,0.0,0.0,0.0,1705312800928,10:00:00.928
233, -28.8593, -18.9306, -51.3619, -31.6128, -62.1370, -24.9633, -96.2648, -25.1211, 0.0000, 0.0000, 0.0000, 0.0000, 0.0000, 0.0000, 0.0000, 0.0000, 0.0000, 0.0000,0.0,0.0,0.0,1705312800932,10:00:00.932
234, -19.3733, -21.5753, -53.2135, -34.1489, -61.2590, -12.8573, -97.6977, -31.8001, 0.0000, 0.0000, 0.0000, 0.0000, 0.0000, 0.0000, 0.0000, 0.0000, 0.0000, 0.0000,0.0,0.0,0.0,1705312800936,10:00:00.936
235, -13.9314, -23.3573, -34.8088, -18.2574, -70.5024, -25.8657, -96.7047, -35.1672, 0.0000, 0.0000, 0.0000, 0.0000, 0.0000, 0.0000, 0.0000, 0.0000, 0.0000, 0.0000,0.0,0.0,0.0,1705312800940,10:00:00.940
236, -20.5208, -26.0252, -26.4035, -15.5998, -84.5048, -47.6569, -100.2993, -41.4978, 0.0000, 0.0000, 0.0000, 0.0000, 0.0000, 0.0000, 0.0000, 0.0000, 0.0000, 0.0000,0.0,0.0,0.0,1705312800944,10:00:00.944
237, -20.8941, -19.7056, -42.9648, -29.7318, -79.4716, -40.4103, -103.1013, -49.7643, 0.0000, 0.0000, 0.0000, 0.0000, 0.0000, 0.0000, 0.0000, 0.0000, 0.0000, 0.0000,0.0,0.0,0.0,1705312800948,10:00:00.948
238, -2.2102, -3.9504, -47.9344, -27.7843, -56.8772, -25.3076, -99.2600, -54.8022, 0.0000, 0.0000, 0.0000, 0.0000, 0.0000, 0.0000, 0.0000, 0.0000, 0.0000, 0.0000,0.0,0.0,0.0,1705312800952,10:00:00.952
239, 8.3408, 0.5201, -31.9844, -13.4288, -39.5296, -32.0351, -91.4908, -53.2865, 0.0000, 0.0000, 0.0000, 0.0000, 0.0000, 0.0000, 0.0000, 0.0000, 0.0000, 0.0000,0.0,0.0,0.0,1705312800956,10:00:00.956
240, -8.8979, -16.8423, -24.2546, -20.4268, -39.1871, -47.8530, -84.9353, -47.8004, 0.0000, 0.0000, 0.0000, 0.0000, 0.0000, 0.0000, 0.0000, 0.0000, 0.0000, 0.0000,0.0,0.0,0.0,1705312800960,10:00:00.960
241, -25.9175, -34.9714, -29.4588, -45.6830, -48.6942, -60.4041, -82.7519, -43.9751, 0.0000, 0.0000, 0.0000, 0.0000, 0.0000, 0.0000, 0.0000, 0.0000, 0.0000, 0.0000,0.0,0.0,0.0,1705312800964,10:00:00.964
242, -19.6224, -32.4509, -34.3544, -62.4873, -51.8665, -69.3089, -83.8431, -43.0365, 0.0000, 0.0000, 0.0000, 0.0000, 0.0000, 0.0000, 0.0000, 0.0000, 0.0000, 0.0000,0.0,0.0,0.0,1705312800968,10:00:00.968
243, -7.9198, -18.3030, -37.2963, -67.0542, -44.6165, -68.5044, -83.4445, -42.9521, 0.0000, 0.0000, 0.0000, 0.0000, 0.0000, 0.0000, 0.0000, 0.0000, 0.0000, 0.0000,0.0,0.0,0.0,1705312800972,10:00:00.972
244, -6.2254, -11.2726, -37.8569, -66.4036, -42.9312, -64.6694, -81.8250, -43.0054, 0.0000, 0.0000, 0.0000, 0.0000, 0.0000, 0.0000, 0.0000, 0.0000, 0.0000, 0.0000,0.0,0.0,0.0,1705312800976,10:00:00.976
245, -6.0437, -12.2223, -37.5222, -61.0881, -52.8758, -68.9998, -85.3598, -42.8705, 0.0000, 0.0000, 0.0000, 0.0000, 0.0000, 0.0000, 0.0000, 0.0000, 0.0000, 0.0000,0.0,0.0,0.0,1705312800980,10:00:00.980
246, -1.2823, -15.2819, -39.1755, -55.4470, -59.9192, -73.9125, -95.4911, -44.7680, 0.0000, 0.0000, 0.0000, 0.0000, 0.0000, 0.0000, 0.0000, 0.0000, 0.0000, 0.0000,0.0,0.0,0.0,1705312800984,10:00:00.984
247, 5.9260, -22.1365, -36.3255, -55.3750, -63.9715, -77.8629, -107.4749, -53.4820, 0.0000, 0.0000, 0.0000, 0.0000, 0.0000, 0.0000, 0.0000, 0.0000, 0.0000, 0.0000,0.0,0.0,0.0,1705312800988,10:00:00.988
248, 10.8394, -32.2966, -34.4220, -62.9498, -81.0312, -89.7516, -119.0526, -66.0666, 0.0000, 0.0000, 0.0000, 0.0000, 0.0000, 0.0000, 0.0000, 0.0000, 0.0000, 0.0000,0.0,0.0,0.0,1705312800992,10:00:00.992
249, 5.6093, -38.8150, -50.3108, -78.3070, -104.3793, -97.3751, -129.7574, -72.0779, 0.0000, 0.0000, 0.0000, 0.0000, 0.0000, 0.0000, 0.0000, 0.0000, 0.0000, 0.0000,0.0,0.0,0.0,1705312800996,10:00:00.996
250, -4.0000, -37.0000, -71.0000, -90.0000, -109.0000, -86.0000, -135.0000, -68.0000, 0.0000, 0.0000, 0.0000, 0.0000, 0.0000, 0.0000, 0.0000, 0.0000, 0.0000, 0.0000,0.0,0.0,0.0,1705312801000,10:00:01.000
251, -1.0560, -27.0230, -71.2032, -81.7704, -91.0211, -69.2230, -129.7287, -59.0179, 0.0000, 0.0000, 0.0000, 0.0000, 0.0000, 0.0000, 0.0000, 0.0000, 0.0000, 0.0000,0.0,0.0,0.0,1705312801004,10:00:01.004
252, 8.4330, -15.6631, -57.8644, -60.8003, -72.4605, -65.1041, -117.3713, -50.8654, 0.0000, 0.0000, 0.0000, 0.0000, 0.0000, 0.0000, 0.0000, 0.0000, 0.0000, 0.0000,0.0,0.0,0.0,1705312801008,10:00:01.008
253, 5.2454, -15.0778, -46.2598, -48.5917, -71.8815, -72.0395, -108.5086, -47.9715, 0.0000, 0.0000, 0.0000, 0.0000, 0.0000, 0.0000, 0.0000, 0.0000, 0.0000, 0.0000,0.0,0.0,0.0,1705312801012,10:00:01.012
254, -3.4805, -24.6199, -37.4876, -45.1827, -81.7908, -74.9993, -106.9969, -48.0874, 0.0000, 0.0000, 0.0000, 0.0000, 0.0000, 0.0000, 0.0000, 0.0000, 0.0000, 0.0000,0.0,0.0,0.0,1705312801016,10:00:01.016
255, -0.9739, -25.1372, -34.9281, -34.1508, -78.6093, -60.6607, -104.5282, -40.0443, 0.0000, 0.0000, 0.0000, 0.0000, 0.0000, 0.0000, 0.0000, 0.0000, 0.0000, 0.0000,0.0,0.0,0.0,1705312801020,10:00:01.020
0, 5.5919, -9.9215, -31.9524, -14.3396, -57.5045, -39.2333, -95.5516, -20.9806, 0.0000, 0.0000, 0.0000, 0.0000, 0.0000, 0.0000, 0.0000, 0.0000, 0.0000, 0.0000,0.0,0.0,0.0,1705312801024,10:00:01.024
1, 3.2941, -1.2102, -15.3249, -3.6739, -42.5214, -35.1279, -87.6564, -4.9919, 0.0000, 0.0000, 0.0000, 0.0000, 0.0000, 0.0000, 0.0000, 0.0000, 0.0000, 0.0000,0.0,0.0,0.0,1705312801028,10:00:01.028
2, -6.0431, -16.3963, -6.9133, -16.0366, -54.2227, -46.2046, -90.5229, -3.9830, 0.0000, 0.0000, 0.0000, 0.0000, 0.0000, 0.0000, 0.0000, 0.0000, 0.0000, 0.0000,0.0,0.0,0.0,1705312801032,10:00:01.032
3, -19.5353, -42.6525, -34.8440, -44.3075, -83.4074, -53.9959, -104.8940, -15.2946, 0.0000, 0.0000, 0.0000, 0.0000, 0.0000, 0.0000, 0.0000, 0.0000, 0.0000, 0.0000,0.0,0.0,0.0,1705312801036,10:00:01.036
4, -37.6755, -61.1225, -74.3206, -69.4340, -101.6464, -60.5462, -123.8893, -30.6365, 0.0000, 0.0000, 0.0000, 0.0000, 0.0000, 0.0000, 0.0000, 0.0000, 0.0000, 0.0000,0.0,0.0,0.0,1705312801040,10:00:01.040
5, -50.2737, -66.9560, -85.7295, -80.2083, -93.9893, -69.4137, -137.5465, -42.5227, 0.0000, 0.0000, 0.0000, 0.0000, 0.0000, 0.0000, 0.0000, 0.0000, 0.0000, 0.0000,0.0,0.0,0.0,1705312801044,10:00:01.044
6, -41.5821, -57.0751, -71.6374, -76.0036, -80.1083, -70.2654, -140.5672, -46.1165, 0.0000, 0.0000, 0.0000, 0.0000, 0.0000, 0.0000, 0.0000, 0.0000, 0.0000, 0.0000,0.0,0.0,0.0,1705312801048,10:00:01.048
7, -18.1788, -33.2011, -56.7628, -63.5490, -84.8672, -66.3310, -136.1376, -42.5745, 0.0000, 0.0000, 0.0000, 0.0000, 0.0000, 0.0000, 0.0000, 0.0000, 0.0000, 0.0000,0.0,0.0,0.0,1705312801052,10:00:01.052
8, -8.7791, -14.5618, -55.6059, -56.9863, -94.0426, -66.9243, -125.9046, -34.6361, 0.0000, 0.0000, 0.0000, 0.0000, 0.0000, 0.0000, 0.0000, 0.0000, 0.0000, 0.0000,0.0,0.0,0.0,1705312801056,10:00:01.056
9, -16.2697, -12.8988, -63.8126, -60.9112, -82.3751, -66.0380, -107.9830, -22.9723, 0.0000, 0.0000, 0.0000, 0.0000, 0.0000, 0.0000, 0.0000, 0.0000, 0.0000, 0.0000,0.0,0.0,0.0,1705312801060,10:00:01.060
10, -9.3863, -15.7754, -65.1555, -62.7195, -67.5920, -66.1251, -90.4650, -13.2335, 0.0000, 0.0000, 0.0000, 0.0000, 0.0000, 0.0000, 0.0000, 0.0000, 0.0000, 0.0000,0.0,0.0,0.0,1705312801064,10:00:01.064
11, 11.0150, -19.2965, -62.3215, -59.3157, -77.9493, -78.1007, -86.2000, -14.4235, 0.0000, 0.0000, 0.0000, 0.0000, 0.0000, 0.0000, 0.0000, 0.0000, 0.0000, 0.0000,0.0,0.0,0.0,1705312801068,10:00:01.068
12, 7.7157, -32.4854, -71.6017, -60.0238, -97.2255, -89.4352, -93.3597, -25.2597, 0.0000, 0.0000, 0.0000, 0.0000, 0.0000, 0.0000, 0.0000, 0.0000, 0.0000, 0.0000,0.0,0.0,0.0,1705312801072,10:00:01.072
13, -13.6667, -43.2657, -79.0316, -60.5545, -98.6346, -86.2921, -102.1093, -34.6873, 0.0000, 0.0000, 0.0000, 0.0000, 0.0000, 0.0000, 0.0000, 0.0000, 0.0000, 0.0000,0.0,0.0,0.0,1705312801076,10:00:01.076
14, -17.7362, -39.9465, -66.1135, -57.4747, -91.6571, -81.7831, -111.0284, -36.0646, 0.0000, 0.0000, 0.0000, 0.0000, 0.0000, 0.0000, 0.0000, 0.0000, 0.0000, 0.0000,0.0,0.0,0.0,1705312801080,10:00:01.080
15, -15.1861, -43.0860, -56.1746, -64.1662, -92.0659, -83.1536, -119.6410, -31.1130, 0.0000, 0.0000, 0.0000, 0.0000, 0.0000, 0.0000, 0.0000, 0.0000, 0.0000, 0.0000,0.0,0.0,0.0,1705312801084,10:00:01.084
16, -25.4006, -60.0029, -65.4701, -77.1984, -90.0983, -80.3910, -121.8043, -24.1844, 0.0000, 0.0000, 0.0000, 0.0000, 0.0000, 0.0000, 0.0000, 0.0000, 0.0000, 0.0000,0.0,0.0,0.0,1705312801088,10:00:01.088
17, -26.7657, -65.0945, -68.0087, -78.4882, -77.0958, -78.5656, -117.6957, -19.9964, 0.0000, 0.0000, 0.0000, 0.0000, 0.0000, 0.0000, 0.0000, 0.0000, 0.0000, 0.0000,0.0,0.0,0.0,1705312801092,10:00:01.092
18, -16.4805, -58.4871, -55.0788, -77.9143, -66.2353, -85.2097, -115.0082, -21.5442, 0.0000, 0.0000, 0.0000, 0.0000, 0.0000, 0.0000, 0.0000, 0.0000, 0.0000, 0.0000,0.0,0.0,0.0,1705312801096,10:00:01.096
19, -20.0000, -64.0000, -51.0000, -89.0000, -68.0000, -82.0000, -115.0000, -25.0000, 0.0000, 0.0000, 0.0000, 0.0000, 0.0000, 0.0000, 0.0000, 0.0000, 0.0000, 0.0000,0.0,0.0,0.0,1705312801100,10:00:01.100
20, -25.2431, -72.5818, -60.3113, -92.4372, -72.0890, -60.0053, -111.4879, -22.8418, 0.0000, 0.0000, 0.0000, 0.0000, 0.0000, 0.0000, 0.0000, 0.0000, 0.0000, 0.0000,0.0,0.0,0.0,1705312801104,10:00:01.104
21, -14.0239, -67.6555, -66.7508, -79.6819, -69.0631, -48.5058, -102.9501, -15.9739, 0.0000, 0.0000, 0.0000, 0.0000, 0.0000, 0.0000, 0.0000, 0.0000, 0.0000, 0.0000,0.0,0.0,0.0,1705312801108,10:00:01.108
22, -11.5983, -64.5572, -65.4628, -73.6626, -68.3304, -64.3996, -95.5507, -12.9623, 0.0000, 0.0000, 0.0000, 0.0000, 0.0000, 0.0000, 0.0000, 0.0000, 0.0000, 0.0000,0.0,0.0,0.0,1705312801112,10:00:01.112
23, -27.3657, -68.7130, -61.7819, -77.7307, -77.3990, -75.9370, -93.2989, -13.2062, 0.0000, 0.0000, 0.0000, 0.0000, 0.0000, 0.0000, 0.0000, 0.0000, 0.0000, 0.0000,0.0,0.0,0.0,1705312801116,10:00:01.116
24, -34.1138, -60.3864, -61.3542, -71.0671, -85.7486, -60.3245, -92.7125, -7.2423, 0.0000, 0.0000, 0.0000, 0.0000, 0.0000, 0.0000, 0.0000, 0.0000, 0.0000, 0.0000,0.0,0.0,0.0,1705312801120,10:00:01.120
25, -29.0119, -40.4138, -61.9838, -52.4964, -86.8684, -48.9094, -91.7699, 1.9572, 0.0000, 0.0000, 0.0000, 0.0000, 0.0000, 0.0000, 0.0000, 0.0000, 0.0000, 0.0000,0.0,0.0,0.0,1705312801124,10:00:01.124
26, -26.4657, -26.8738, -54.2513, -38.6488, -89.3487, -66.6695, -94.9872, 0.8057, 0.0000, 0.0000, 0.0000, 0.0000, 0.0000, 0.0000, 0.0000, 0.0000, 0.0000, 0.0000,0.0,0.0,0.0,1705312801128,10:00:01.128
27, -23.2199, -21.2146, -46.7490, -39.3107, -94.8704, -83.0905, -102.3610, -10.2407, 0.0000, 0.0000, 0.0000, 0.0000, 0.0000, 0.0000, 0.0000, 0.0000, 0.0000, 0.0000,0.0,0.0,0.0,1705312801132,10:00:01.132
28, -22.6359, -18.8349, -59.2893, -52.5177, -96.2152, -74.0510, -106.6506, -20.0002, 0.0000, 0.0000, 0.0000, 0.0000, 0.0000, 0.0000, 0.0000, 0.0000, 0.0000, 0.0000,0.0,0.0,0.0,1705312801136,10:00:01.136
29, -29.6001, -20.0306, -80.7403, -63.9372, -96.7786, -66.2501, -107.3802, -28.7997, 0.0000, 0.0000, 0.0000, 0.0000, 0.0000, 0.0000, 0.0000, 0.0000, 0.0000, 0.0000,0.0,0.0,0.0,1705312801140,10:00:01.140
30, -25.0960, -18.6821, -84.6174, -61.5075, -101.2420, -76.8029, -110.2463, -40.7191, 0.0000, 0.0000, 0.0000, 0.0000, 0.0000, 0.0000, 0.0000, 0.0000, 0.0000, 0.0000,0.0,0.0,0.0,1705312801144,10:00:01.144
31, -6.1804, -9.0830, -73.0408, -52.3311, -98.8537, -80.5671, -112.5155, -46.9552, 0.0000, 0.0000, 0.0000, 0.0000, 0.0000, 0.0000, 0.0000, 0.0000, 0.0000, 0.0000,0.0,0.0,0.0,1705312801148,10:00:01.148
32, 1.1028, 5.8463, -58.4488, -42.9982, -82.8187, -64.1139, -107.5049, -40.3469, 0.0000, 0.0000, 0.0000, 0.0000, 0.0000, 0.0000, 0.0000, 0.0000, 0.0000, 0.0000,0.0,0.0,0.0,1705312801152,10:00:01.152
33, -2.9415, 22.0614, -40.2026, -27.1935, -69.2584, -49.2912, -98.4821, -30.4007, 0.0000, 0.0000, 0.0000, 0.0000, 0.0000, 0.0000, 0.0000, 0.0000, 0.0000, 0.0000,0.0,0.0,0.0,1705312801156,10:00:01.156
34, 1.4841, 33.1252, -24.4434, -10.5152, -75.0662, -55.6125, -94.0385, -29.1085, 0.0000, 0.0000, 0.0000, 0.0000, 0.0000, 0.0000, 0.0000, 0.0000, 0.0000, 0.0000,0.0,0.0,0.0,1705312801160,10:00:01.160
35, 4.5410, 32.4526, -21.0921, -7.8282, -89.9236, -75.5427, -96.5361, -36.0971, 0.0000, 0.0000, 0.0000, 0.0000, 0.0000, 0.0000, 0.0000, 0.0000, 0.0000, 0.0000,0.0,0.0,0.0,1705312801164,10:00:01.164
36, -5.2187, 26.6147, -22.3661, -12.7875, -88.8256, -82.7863, -100.6820, -42.5572, 0.0000, 0.0000, 0.0000, 0.0000, 0.0000, 0.0000, 0.0000, 0.0000, 0.0000, 0.0000,0.0,0.0,0.0,1705312801168,10:00:01.168
37, -7.3167, 25.8054, -17.5095, -9.4167, -68.7770, -63.5980, -99.4628, -41.2667, 0.0000, 0.0000, 0.0000, 0.0000, 0.0000, 0.0000, 0.0000, 0.0000, 0.0000, 0.0000,0.0,0.0,0.0,1705312801172,10:00:01.172
38, 6.9045, 23.2931, -10.6745, -3.2573, -54.2704, -41.0134, -93.5186, -34.1299, 0.0000, 0.0000, 0.0000, 0.0000, 0.0000, 0.0000, 0.0000, 0.0000, 0.0000, 0.0000,0.0,0.0,0.0,1705312801176,10:00:01.176
39, 11.1081, 4.5951, -11.3552, -11.5714, -60.6019, -41.2895, -91.2848, -29.3844, 0.0000, 0.0000, 0.0000, 0.0000, 0.0000, 0.0000, 0.0000, 0.0000, 0.0000, 0.0000,0.0,0.0,0.0,1705312801180,10:00:01.180
40, -8.8126, -29.3361, -23.8158, -36.1231, -73.1573, -52.8211, -94.5450, -29.0772, 0.0000, 0.0000, 0.0000, 0.0000, 0.0000, 0.0000, 0.0000, 0.0000, 0.0000, 0.0000,0.0,0.0,0.0,1705312801184,10:00:01.184
41, -32.1880, -61.2409, -43.4683, -62.9863, -74.5213, -55.9619, -95.8994, -28.9529, 0.0000, 0.0000, 0.0000, 0.0000, 0.0000, 0.0000, 0.0000, 0.0000, 0.0000, 0.0000,0.0,0.0,0.0,1705312801188,10:00:01.188
42, -38.1968, -75.9819, -58.5425, -80.3974, -68.7930, -56.4305, -93.7460, -30.0238, 0.0000, 0.0000, 0.0000, 0.0000, 0.0000, 0.0000, 0.0000, 0.0000, 0.0000, 0.0000,0.0,0.0,0.0,1705312801192,10:00:01.192
43, -27.5258, -70.7887, -59.5779, -84.7335, -65.8050, -60.3719, -92.6157, -35.8682, 0.0000, 0.0000, 0.0000, 0.0000, 0.0000, 0.0000, 0.0000, 0.0000, 0.0000, 0.0000,0.0,0.0,0.0,1705312801196,10:00:01.196
44, -12.0000, -50.0000, -46.0000, -75.0000, -64.0000, -63.0000, -92.0000, -44.0000, 0.0000, 0.0000, 0.0000, 0.0000, 0.0000, 0.0000, 0.0000, 0.0000, 0.0000, 0.0000,0.0,0.0,0.0,1705312801200,10:00:01.200
45, -7.6153, -25.0349, -29.8974, -57.4941, -62.1905, -68.5279, -91.0925, -51.3845, 0.0000, 0.0000, 0.0000, 0.0000, 0.0000, 0.0000, 0.0000, 0.0000, 0.0000, 0.0000,0.0,0.0,0.0,1705312801204,10:00:01.204
46, -21.7777, -13.0642, -29.1951, -46.9158, -67.6541, -80.4898, -93.7377, -57.0017, 0.0000, 0.0000, 0.0000, 0.0000, 0.0000, 0.0000, 0.0000, 0.0000, 0.0000, 0.0000,0.0,0.0,0.0,1705312801208,10:00:01.208
47, -32.5505, -14.7355, -42.3996, -45.9992, -79.6926, -86.3607, -98.5890, -55.0961, 0.0000, 0.0000, 0.0000, 0.0000, 0.0000, 0.0000, 0.0000, 0.0000, 0.0000, 0.0000,0.0,0.0,0.0,1705312801212,10:00:01.212
48, -14.4274, -13.0799, -50.1793, -44.6347, -85.4148, -77.1450, -99.5135, -41.5348, 0.0000, 0.0000, 0.0000, 0.0000, 0.0000, 0.0000, 0.0000, 0.0000, 0.0000, 0.0000,0.0,0.0,0.0,1705312801216,10:00:01.216
49, 14.8341, -8.0286, -49.7737, -44.9005, -83.2980, -63.3535, -97.3583, -23.6605, 0.0000, 0.0000, 0.0000, 0.0000, 0.0000, 0.0000, 0.0000, 0.0000, 0.0000, 0.0000,0.0,0.0,0.0,1705312801220,10:00:01.220
50, 21.9390, -12.0388, -52.5433, -52.7812, -87.2767, -62.3623, -97.4224, -11.0121, 0.0000, 0.0000, 0.0000, 0.0000, 0.0000, 0.0000, 0.0000, 0.0000, 0.0000, 0.0000,0.0,0.0,0.0,1705312801224,10:00:01.224
51, 11.1614, -18.4713, -59.2056, -59.4827, -99.5648, -77.0872, -100.6459, -5.2633, 0.0000, 0.0000, 0.0000, 0.0000, 0.0000, 0.0000, 0.0000, 0.0000, 0.0000, 0.0000,0.0,0.0,0.0,1705312801228,10:00:01.228
52, -0.0882, -21.9769, -69.3019, -62.8169, -106.3200, -88.9529, -104.6511, -3.9046, 0.0000, 0.0000, 0.0000, 0.0000, 0.0000, 0.0000, 0.0000, 0.0000, 0.0000, 0.0000,0.0,0.0,0.0,1705312801232,10:00:01.232
53, -13.5875, -33.4974, -81.7491, -69.0035, -101.0333, -82.3874, -105.4034, -2.4439, 0.0000, 0.0000, 0.0000, 0.0000, 0.0000, 0.0000, 0.0000, 0.0000, 0.0000, 0.0000,0.0,0.0,0.0,1705312801236,10:00:01.236
54, -25.2859, -44.4117, -81.9429, -66.3734, -89.6944, -69.5095, -99.8177, 1.8879, 0.0000, 0.0000, 0.0000, 0.0000, 0.0000, 0.0000, 0.0000, 0.0000, 0.0000, 0.0000,0.0,0.0,0.0,1705312801240,10:00:01.240
55, -23.5395, -38.3030, -70.3928, -51.1395, -81.7710, -68.2675, -92.6716, 1.6470, 0.0000, 0.0000, 0.0000, 0.0000, 0.0000, 0.0000, 0.0000, 0.0000, 0.0000, 0.0000,0.0,0.0,0.0,1705312801244,10:00:01.244
56, -15.7265, -32.0220, -69.3647, -49.3633, -82.8570, -72.4894, -90.0937, -9.3233, 0.0000, 0.0000, 0.0000, 0.0000, 0.0000, 0.0000, 0.0000, 0.0000, 0.0000, 0.0000,0.0,0.0,0.0,1705312801248,10:00:01.248
57, -14.2462, -40.3173, -74.9355, -66.0179, -82.1590, -65.5509, -86.0041, -16.9683, 0.0000, 0.0000, 0.0000, 0.0000, 0.0000, 0.0000, 0.0000, 0.0000, 0.0000, 0.0000,0.0,0.0,0.0,1705312801252,10:00:01.252
58, -17.7677, -46.9083, -65.9827, -73.1932, -66.2681, -46.2923, -72.1068, -5.2596, 0.0000, 0.0000, 0.0000, 0.0000, 0.0000, 0.0000, 0.0000, 0.0000, 0.0000, 0.0000,0.0,0.0,0.0,1705312801256,10:00:01.256
59, -19.5172, -47.7350, -52.0226, -66.0279, -52.3485, -30.7163, -55.8760, 14.4004, 0.0000, 0.0000, 0.0000, 0.0000, 0.0000, 0.0000, 0.0000, 0.0000, 0.0000, 0.0000,0.0,0.0,0.0,1705312801260,10:00:01.260
60, -17.4188, -54.0293, -49.0938, -60.5259, -62.0328, -32.9644, -50.8351, 19.5797, 0.0000, 0.0000, 0.0000, 0.0000, 0.0000, 0.0000, 0.0000, 0.0000, 0.0000, 0.0000,0.0,0.0,0.0,1705312801264,10:00:01.264
61, -31.9217, -61.6623, -52.0196, -57.4444, -76.2417, -45.1477, -58.6190, 8.7694, 0.0000, 0.0000, 0.0000, 0.0000, 0.0000, 0.0000, 0.0000, 0.0000, 0.0000, 0.0000,0.0,0.0,0.0,1705312801268,10:00:01.268
62, -82.7704, -71.5197, -60.7698, -58.1987, -74.2494, -52.1604, -73.0476, -6.1306, 0.0000, 0.0000, 0.0000, 0.0000, 0.0000, 0.0000, 0.0000, 0.0000, 0.0000, 0.0000,0.0,0.0,0.0,1705312801272,10:00:01.272
63, -118.3600, -87.7774, -75.4360, -69.6091, -74.6547, -61.5010, -88.7545, -20.5999, 0.0000, 0.0000, 0.0000, 0.0000, 0.0000, 0.0000, 0.0000, 0.0000, 0.0000, 0.0000,0.0,0.0,0.0,1705312801276,10:00:01.276
64, -69.6482, -88.4717, -81.3649, -82.9383, -89.2376, -82.9052, -100.5380, -34.2796, 0.0000, 0.0000, 0.0000, 0.0000, 0.0000, 0.0000, 0.0000, 0.0000, 0.0000, 0.0000,0.0,0.0,0.0,1705312801280,10:00:01.280
65, 10.8570, -67.2388, -80.8182, -92.2177, -101.0117, -101.7553, -107.1408, -44.9411, 0.0000, 0.0000, 0.0000, 0.0000, 0.0000, 0.0000, 0.0000, 0.0000, 0.0000, 0.0000,0.0,0.0,0.0,1705312801284,10:00:01.284
66, 19.4517, -57.1247, -88.2364, -103.4141, -104.1080, -109.7614, -112.6980, -52.8932, 0.0000, 0.0000, 0.0000, 0.0000, 0.0000, 0.0000, 0.0000, 0.0000, 0.0000, 0.0000,0.0,0.0,0.0,1705312801288,10:00:01.288
67, -22.6431, -64.2432, -93.0010, -108.7572, -100.5941, -115.9967, -116.0460, -57.9450, 0.0000, 0.0000, 0.0000, 0.0000, 0.0000, 0.0000, 0.0000, 0.0000, 0.0000, 0.0000,0.0,0.0,0.0,1705312801292,10:00:01.292
68, -32.0992, -60.6702, -82.3091, -98.5675, -84.4168, -113.5197, -110.9894, -55.2811, 0.0000, 0.0000, 0.0000, 0.0000, 0.0000, 0.0000, 0.0000, 0.0000, 0.0000, 0.0000,0.0,0.0,0.0,1705312801296,10:00:01.296
69, -14.0000, -47.0000, -66.0000, -82.0000, -69.0000, -95.0000, -101.0000, -44.0000, 0.0000, 0.0000, 0.0000, 0.0000, 0.0000, 0.0000, 0.0000, 0.0000, 0.0000, 0.0000,0.0,0.0,0.0,1705312801300,10:00:01.300
70, -13.5993, -41.3639, -54.1080, -67.6145, -74.5090, -80.6853, -96.6817, -30.9044, 0.0000, 0.0000, 0.0000, 0.0000, 0.0000, 0.0000, 0.0000, 0.0000, 0.0000, 0.0000,0.0,0.0,0.0,1705312801304,10:00:01.304
71, -29.6063, -43.6069, -54.0568, -60.2969, -88.5960, -81.4300, -100.2417, -21.3333, 0.0000, 0.0000, 0.0000, 0.0000, 0.0000, 0.0000, 0.0000, 0.0000, 0.0000, 0.0000,0.0,0.0,0.0,1705312801308,10:00:01.308
72, -43.8149, -50.8731, -68.9360, -67.4101, -94.6496, -83.1155, -107.0811, -15.5234, 0.0000, 0.0000, 0.0000, 0.0000, 0.0000, 0.0000, 0.0000, 0.0000, 0.0000, 0.0000,0.0,0.0,0.0,1705312801312,10:00:01.312
73, -47.9180, -57.1671, -78.7565, -77.6906, -96.3686, -81.8781, -114.0391, -11.9013, 0.0000, 0.0000, 0.0000, 0.0000, 0.0000, 0.0000, 0.0000, 0.0000, 0.0000, 0.0000,0.0,0.0,0.0,1705312801316,10:00:01.316
74, -41.5871, -50.7312, -72.1440, -74.8370, -91.3497, -80.0558, -117.4733, -7.2543, 0.0000, 0.0000, 0.0000, 0.0000, 0.0000, 0.0000, 0.0000, 0.0000, 0.0000, 0.0000,0.0,0.0,0.0,1705312801320,10:00:01.320
75, -39.4603, -43.8459, -68.9604, -68.4891, -82.8528, -74.7342, -116.3136, -1.0508, 0.0000, 0.0000, 0.0000, 0.0000, 0.0000, 0.0000, 0.0000, 0.0000, 0.0000, 0.0000,0.0,0.0,0.0,1705312801324,10:00:01.324
76, -48.9392, -56.1593, -73.8558, -68.3991, -92.6579, -77.4711, -116.9192, -0.1566, 0.0000, 0.0000, 0.0000, 0.0000, 0.0000, 0.0000, 0.0000, 0.0000, 0.0000, 0.0000,0.0,0.0,0.0,1705312801328,10:00:01.328
77, -61.3985, -76.3157, -76.7586, -70.8112, -112.8270, -89.7795, -122.0056, -7.7335, 0.0000, 0.0000, 0.0000, 0.0000, 0.0000, 0.0000, 0.0000, 0.0000, 0.0000, 0.0000,0.0,0.0,0.0,1705312801332,10:00:01.332
78, -75.8780, -86.9370, -89.0295, -81.4868, -111.1524, -83.0795, -123.7102, -14.0600, 0.0000, 0.0000, 0.0000, 0.0000, 0.0000, 0.0000, 0.0000, 0.0000, 0.0000, 0.0000,0.0,0.0,0.0,1705312801336,10:00:01.336
79, -85.2362, -86.2748, -102.9595, -91.6523, -95.0274, -58.7809, -116.4452, -11.0072, 0.0000, 0.0000, 0.0000, 0.0000, 0.0000, 0.0000, 0.0000, 0.0000, 0.0000, 0.0000,0.0,0.0,0.0,1705312801340,10:00:01.340
80, -78.4021, -75.1696, -88.3500, -75.2717, -90.0095, -54.5669, -103.0603, -2.3961, 0.0000, 0.0000, 0.0000, 0.0000, 0.0000, 0.0000, 0.0000, 0.0000, 0.0000, 0.0000,0.0,0.0,0.0,1705312801344,10:00:01.344
81, -79.7688, -68.0049, -68.2129, -53.1586, -88.9533, -66.3011, -87.0068, 9.1657, 0.0000, 0.0000, 0.0000, 0.0000, 0.0000, 0.0000, 0.0000, 0.0000, 0.0000, 0.0000,0.0,0.0,0.0,1705312801348,10:00:01.348
82, -104.7205, -79.6820, -81.6326, -65.8929, -82.7771, -63.2175, -72.0220, 25.9254, 0.0000, 0.0000, 0.0000, 0.0000, 0.0000, 0.0000, 0.0000, 0.0000, 0.0000, 0.0000,0.0,0.0,0.0,1705312801352,10:00:01.352
83, -112.8269, -88.2515, -98.8815, -87.5938, -81.7824, -57.7556, -64.1751, 41.3636, 0.0000, 0.0000, 0.0000, 0.0000, 0.0000, 0.0000, 0.0000, 0.0000, 0.0000, 0.0000,0.0,0.0,0.0,1705312801356,10:00:01.356
84, -89.6978, -75.8585, -89.3807, -78.4549, -86.7203, -69.1052, -64.9775, 45.3786, 0.0000, 0.0000, 0.0000, 0.0000, 0.0000, 0.0000, 0.0000, 0.0000, 0.0000, 0.0000,0.0,0.0,0.0,1705312801360,10:00:01.360
85, -78.1101, -68.9432, -83.3859, -63.6892, -92.0902, -79.1793, -70.2155, 41.1212, 0.0000, 0.0000, 0.0000, 0.0000, 0.0000, 0.0000, 0.0000, 0.0000, 0.0000, 0.0000,0.0,0.0,0.0,1705312801364,10:00:01.364
86, -86.7294, -78.5419, -94.9206, -70.6155, -97.5287, -76.9326, -76.7633, 37.4746, 0.0000, 0.0000, 0.0000, 0.0000, 0.0000, 0.0000, 0.0000, 0.0000, 0.0000, 0.0000,0.0,0.0,0.0,1705312801368,10:00:01.368
87, -87.2165, -78.6674, -100.8989, -79.5420, -95.3697, -71.5581, -82.5268, 34.8452, 0.0000, 0.0000, 0.0000, 0.0000, 0.0000, 0.0000, 0.0000, 0.0000, 0.0000, 0.0000,0.0,0.0,0.0,1705312801372,10:00:01.372
88, -76.8626, -65.4949, -99.5982, -76.4376, -85.8438, -60.2295, -83.6463, 32.8070, 0.0000, 0.0000, 0.0000, 0.0000, 0.0000, 0.0000, 0.0000, 0.0000, 0.0000, 0.0000,0.0,0.0,0.0,1705312801376,10:00:01.376
89, -59.1970, -54.1790, -95.3584, -68.0954, -85.5503, -43.0232, -77.9039, 36.4367, 0.0000, 0.0000, 0.0000, 0.0000, 0.0000, 0.0000, 0.0000, 0.0000, 0.0000, 0.0000,0.0,0.0,0.0,1705312801380,10:00:01.380
90, -38.0623, -43.5219, -82.3536, -58.3569, -93.4624, -35.2394, -67.9280, 45.4632, 0.0000, 0.0000, 0.0000, 0.0000, 0.0000, 0.0000, 0.0000, 0.0000, 0.0000, 0.0000,0.0,0.0,0.0,1705312801384,10:00:01.384
91, -38.6472, -36.7691, -77.5928, -55.2456, -92.0551, -38.6338, -59.1085, 51.2739, 0.0000, 0.0000, 0.0000, 0.0000, 0.0000, 0.0000, 0.0000, 0.0000, 0.0000, 0.0000,0.0,0.0,0.0,1705312801388,10:00:01.388
92, -53.2718, -39.3271, -88.5551, -59.5584, -78.6441, -42.8464, -53.9527, 48.3700, 0.0000, 0.0000, 0.0000, 0.0000, 0.0000, 0.0000, 0.0000, 0.0000, 0.0000, 0.0000,0.0,0.0,0.0,1705312801392,10:00:01.392
93, -40.1250, -33.1332, -83.0702, -53.2818, -56.0926, -44.3669, -48.5679, 40.2831, 0.0000, 0.0000, 0.0000, 0.0000, 0.0000, 0.0000, 0.0000, 0.0000, 0.0000, 0.0000,0.0,0.0,0.0,1705312801396,10:00:01.396
94, -14.0000, -11.0000, -55.0000, -35.0000, -26.0000, -37.0000, -38.0000, 36.0000, 0.0000, 0.0000, 0.0000, 0.0000, 0.0000, 0.0000, 0.0000, 0.0000, 0.0000, 0.0000,0.0,0.0,0.0,1705312801400,10:00:01.400
95, -17.6735, 4.4015, -38.1841, -21.3981, -2.7558, -16.7241, -22.2898, 43.1014, 0.0000, 0.0000, 0.0000, 0.0000, 0.0000, 0.0000, 0.0000, 0.0000, 0.0000, 0.0000,0.0,0.0,0.0,1705312801404,10:00:01.404
96, -30.6007, 5.7814, -36.7283, -11.4752, 7.8732, 1.1198, -3.5848, 60.0894, 0.0000, 0.0000, 0.0000, 0.0000, 0.0000, 0.0000, 0.0000, 0.0000, 0.0000, 0.0000,0.0,0.0,0.0,1705312801408,10:00:01.408
97, -20.2424, 7.4950, -31.0003, -2.4343, 18.6099, 1.9228, 14.2663, 76.5303, 0.0000, 0.0000, 0.0000, 0.0000, 0.0000, 0.0000, 0.0000, 0.0000, 0.0000, 0.0000,0.0,0.0,0.0,1705312801412,10:00:01.412
98, -7.4401, 10.6735, -26.4818, -6.0601, 23.1819, -7.5873, 21.6345, 82.9686, 0.0000, 0.0000, 0.0000, 0.0000, 0.0000, 0.0000, 0.0000, 0.0000, 0.0000, 0.0000,0.0,0.0,0.0,1705312801416,10:00:01.416
99, -15.9236, 6.7399, -35.1223, -19.0827, 0.7809, -16.6260, 10.4882, 76.6785, 0.0000, 0.0000, 0.0000, 0.0000, 0.0000, 0.0000, 0.0000, 0.0000, 0.0000, 0.0000,0.0,0.0,0.0,1705312801420,10:00:01.420
100, -39.4465, -6.5087, -54.7932, -29.9795, -42.6412, -26.5471, -16.6008, 57.7423, 0.0000, 0.0000, 0.0000, 0.0000, 0.0000, 0.0000, 0.0000, 0.0000, 0.0000, 0.0000,0.0,0.0,0.0,1705312801424,10:00:01.424
101, -63.1573, -25.2823, -80.9859, -45.6091, -84.8468, -43.5173, -52.4616, 26.3434, 0.0000, 0.0000, 0.0000, 0.0000, 0.0000, 0.0000, 0.0000, 0.0000, 0.0000, 0.0000,0.0,0.0,0.0,1705312801428,10:00:01.428
102, -70.8040, -38.5712, -100.1315, -66.6101, -112.7097, -64.7437, -89.5607, -12.2262, 0.0000, 0.0000, 0.0000, 0.0000, 0.0000, 0.0000, 0.0000, 0.0000, 0.0000, 0.0000,0.0,0.0,0.0,1705312801432,10:00:01.432
103, -63.5307, -41.3117, -98.6363, -78.2807, -118.7338, -78.0313, -116.4739, -44.3830, 0.0000, 0.0000, 0.0000, 0.0000, 0.0000, 0.0000, 0.0000, 0.0000, 0.0000, 0.0000,0.0,0.0,0.0,1705312801436,10:00:01.436
104, -64.8963, -45.7327, -91.0090, -82.7491, -109.4358, -82.0213, -125.7267, -58.4843, 0.0000, 0.0000, 0.0000, 0.0000, 0.0000, 0.0000, 0.0000, 0.0000, 0.0000, 0.0000,0.0,0.0,0.0,1705312801440,10:00:01.440
105, -77.7427, -56.6342, -96.6973, -90.5273, -102.7439, -88.5248, -121.4684, -56.5920, 0.0000, 0.0000, 0.0000, 0.0000, 0.0000, 0.0000, 0.0000, 0.0000, 0.0000, 0.0000,0.0,0.0,0.0,1705312801444,10:00:01.444
106, -83.4201, -60.6441, -107.0947, -95.5722, -95.2360, -92.8173, -108.6424, -47.2051, 0.0000, 0.0000, 0.0000, 0.0000, 0.0000, 0.0000, 0.0000, 0.0000, 0.0000, 0.0000,0.0,0.0,0.0,1705312801448,10:00:01.448
107, -82.5930, -53.8289, -108.2075, -93.2785, -73.6733, -81.8758, -87.6461, -34.3896, 0.0000, 0.0000, 0.0000, 0.0000, 0.0000, 0.0000, 0.0000, 0.0000, 0.0000, 0.0000,0.0,0.0,0.0,1705312801452,10:00:01.452
108, -83.9051, -47.2180, -101.5382, -90.1451, -53.6012, -72.8559, -65.1712, -25.1761, 0.0000, 0.0000, 0.0000, 0.0000, 0.0000, 0.0000, 0.0000, 0.0000, 0.0000, 0.0000,0.0,0.0,0.0,1705312801456,10:00:01.456
109, -84.2940, -46.0158, -92.8719, -87.7905, -53.5691, -83.8176, -52.0327, -29.5630, 0.0000, 0.0000, 0.0000, 0.0000, 0.0000, 0.0000, 0.0000, 0.0000, 0.0000, 0.0000,0.0,0.0,0.0,1705312801460,10:00:01.460
110, -83.8690, -45.3213, -87.6851, -84.8035, -56.4764, -88.5632, -47.9042, -40.5542, 0.0000, 0.0000, 0.0000, 0.0000, 0.0000, 0.0000, 0.0000, 0.0000, 0.0000, 0.0000,0.0,0.0,0.0,1705312801464,10:00:01.464
111, -79.9524, -38.8825, -83.8087, -79.0233, -40.5892, -64.8380, -42.6909, -38.4539, 0.0000, 0.0000, 0.0000, 0.0000, 0.0000, 0.0000, 0.0000, 0.0000, 0.0000, 0.0000,0.0,0.0,0.0,1705312801468,10:00:01.468
112, -65.2141, -28.8536, -66.6701, -63.5276, -18.0000, -39.6531, -31.4334, -21.3349, 0.0000, 0.0000, 0.0000, 0.0000, 0.0000, 0.0000, 0.0000, 0.0000, 0.0000, 0.0000,0.0,0.0,0.0,1705312801472,10:00:01.472
113, -50.0747, -24.7269, -38.1226, -43.6788, -14.7081, -35.2331, -19.4384, -4.4235, 0.0000, 0.0000, 0.0000, 0.0000, 0.0000, 0.0000, 0.0000, 0.0000, 0.0000, 0.0000,0.0,0.0,0.0,1705312801476,10:00:01.476
114, -42.1932, -24.2098, -22.6079, -36.8953, -33.1995, -33.7029, -15.1434, 5.7681, 0.0000, 0.0000, 0.0000, 0.0000, 0.0000, 0.0000, 0.0000, 0.0000, 0.0000, 0.0000,0.0,0.0,0.0,1705312801480,10:00:01.480
115, -28.8226, -19.2482, -23.4614, -42.3133, -50.7690, -22.9613, -20.7564, 11.4763, 0.0000, 0.0000, 0.0000, 0.0000, 0.0000, 0.0000, 0.0000, 0.0000, 0.0000, 0.0000,0.0,0.0,0.0,1705312801484,10:00:01.484
116, -20.4064, -23.8348, -21.3099, -46.2951, -52.6204, -15.7177, -30.0992, 11.6839, 0.0000, 0.0000, 0.0000, 0.0000, 0.0000, 0.0000, 0.0000, 0.0000, 0.0000, 0.0000,0.0,0.0,0.0,1705312801488,10:00:01.488
117, -43.6158, -49.0158, -17.0010, -49.1978, -51.3763, -19.7717, -36.9172, 6.7982, 0.0000, 0.0000, 0.0000, 0.0000, 0.0000, 0.0000, 0.0000, 0.0000, 0.0000, 0.0000,0.0,0.0,0.0,1705312801492,10:00:01.492
118, -76.8071, -66.5302, -21.5088, -52.2255, -59.4028, -30.0385, -41.3739, 0.1780, 0.0000, 0.0000, 0.0000, 0.0000, 0.0000, 0.0000, 0.0000, 0.0000, 0.0000, 0.0000,0.0,0.0,0.0,1705312801496,10:00:01.496
119, -78.0000, -53.0000, -25.0000, -46.0000, -64.0000, -37.0000, -45.0000, -7.0000, 0.0000, 0.0000, 0.0000, 0.0000, 0.0000, 0.0000, 0.0000, 0.0000, 0.0000, 0.0000,0.0,0.0,0.0,1705312801500,10:00:01.500
120, -55.5768, -32.4153, -19.3372, -32.1382, -54.9659, -33.9660, -46.5854, -12.3842, 0.0000, 0.0000, 0.0000, 0.0000, 0.0000, 0.0000, 0.0000, 0.0000, 0.0000, 0.0000,0.0,0.0,0.0,1705312801504,10:00:01.504
121, -39.6478, -30.5302, -14.9934, -23.3124, -49.8361, -30.8345, -47.9402, -15.3175, 0.0000, 0.0000, 0.0000, 0.0000, 0.0000, 0.0000, 0.0000, 0.0000, 0.0000, 0.0000,0.0,0.0,0.0,1705312801508,10:00:01.508
122, -33.4147, -38.9985, -18.1574, -24.2141, -62.8098, -40.3093, -54.6916, -22.5687, 0.0000, 0.0000, 0.0000, 0.0000, 0.0000, 0.0000, 0.0000, 0.0000, 0.0000, 0.0000,0.0,0.0,0.0,1705312801512,10:00:01.512
123, -32.7809, -45.6500, -27.9523, -34.7291, -74.7186, -50.5270, -66.1995, -35.1725, 0.0000, 0.0000, 0.0000, 0.0000, 0.0000, 0.0000, 0.0000, 0.0000, 0.0000, 0.0000,0.0,0.0,0.0,1705312801516,10:00:01.516
124, -37.7523, -50.1432, -44.6245, -50.9972, -67.1411, -50.6795, -75.3393, -44.0485, 0.0000, 0.0000, 0.0000, 0.0000, 0.0000, 0.0000, 0.0000, 0.0000, 0.0000, 0.0000,0.0,0.0,0.0,1705312801520,10:00:01.520
125, -39.6538, -50.6700, -59.0309, -60.4758, -62.1288, -57.2462, -81.3895, -49.2957, 0.0000, 0.0000, 0.0000, 0.0000, 0.0000, 0.0000, 0.0000, 0.0000, 0.0000, 0.0000,0.0,0.0,0.0,1705312801524,10:00:01.524
126, -36.5305, -47.0482, -64.0128, -60.6493, -81.8313, -71.0531, -87.8416, -56.6780, 0.0000, 0.0000, 0.0000, 0.0000, 0.0000, 0.0000, 0.0000, 0.0000, 0.0000, 0.0000,0.0,0.0,0.0,1705312801528,10:00:01.528
127, -37.6308, -43.4153, -67.8543, -62.7201, -96.0886, -63.2161, -88.0211, -56.7656, 0.0000, 0.0000, 0.0000, 0.0000, 0.0000, 0.0000, 0.0000, 0.0000, 0.0000, 0.0000,0.0,0.0,0.0,1705312801532,10:00:01.532
128, -39.8825, -41.1194, -67.8994, -64.1453, -75.6086, -37.2246, -74.7041, -40.7760, 0.0000, 0.0000, 0.0000, 0.0000, 0.0000, 0.0000, 0.0000, 0.0000, 0.0000, 0.0000,0.0,0.0,0.0,1705312801536,10:00:01.536
129, -35.8873, -42.6605, -53.7052, -55.5436, -55.6514, -29.7949, -58.6413, -22.2212, 0.0000, 0.0000, 0.0000, 0.0000, 0.0000, 0.0000, 0.0000, 0.0000, 0.0000, 0.0000,0.0,0.0,0.0,1705312801540,10:00:01.540
130, -33.0180, -49.4447, -42.9099, -46.7028, -68.2949, -39.4523, -52.9220, -14.8384, 0.0000, 0.0000, 0.0000, 0.0000, 0.0000, 0.0000, 0.0000, 0.0000, 0.0000, 0.0000,0.0,0.0,0.0,1705312801544,10:00:01.544
131, -35.5116, -52.9723, -49.1821, -44.8273, -79.9202, -37.7027, -52.6207, -14.7034, 0.0000, 0.0000, 0.0000, 0.0000, 0.0000, 0.0000, 0.0000, 0.0000, 0.0000, 0.0000,0.0,0.0,0.0,1705312801548,10:00:01.548
132, -38.9085, -51.2493, -47.5377, -39.5736, -69.7802, -33.6289, -51.6591, -18.8743, 0.0000, 0.0000, 0.0000, 0.0000, 0.0000, 0.0000, 0.0000, 0.0000, 0.0000, 0.0000,0.0,0.0,0.0,1705312801552,10:00:01.552
133, -49.8881, -59.8673, -34.3487, -36.6171, -71.0999, -47.7770, -55.5469, -30.1579, 0.0000, 0.0000, 0.0000, 0.0000, 0.0000, 0.0000, 0.0000, 0.0000, 0.0000, 0.0000,0.0,0.0,0.0,1705312801556,10:00:01.556
134, -69.3162, -82.0281, -44.3771, -52.0046, -86.5405, -61.4571, -62.4252, -41.5739, 0.0000, 0.0000, 0.0000, 0.0000, 0.0000, 0.0000, 0.0000, 0.0000, 0.0000, 0.0000,0.0,0.0,0.0,1705312801560,10:00:01.560
135, -75.6896, -95.8717, -70.8989, -69.9862, -79.9844, -54.1908, -61.3384, -43.4722, 0.0000, 0.0000, 0.0000, 0.0000, 0.0000, 0.0000, 0.0000, 0.0000, 0.0000, 0.0000,0.0,0.0,0.0,1705312801564,10:00:01.564
136, -64.9956, -91.6491, -73.5093, -67.9761, -57.8366, -40.6222, -53.3954, -37.5330, 0.0000, 0.0000, 0.0000, 0.0000, 0.0000, 0.0000, 0.0000, 0.0000, 0.0000, 0.0000,0.0,0.0,0.0,1705312801568,10:00:01.568
137, -58.6561, -84.0855, -58.8576, -58.4814, -51.7291, -35.6135, -47.9887, -28.2779, 0.0000, 0.0000, 0.0000, 0.0000, 0.0000, 0.0000, 0.0000, 0.0000, 0.0000, 0.0000,0.0,0.0,0.0,1705312801572,10:00:01.572
138, -53.6782, -78.1634, -53.6346, -55.4816, -59.2777, -35.0478, -47.1482, -17.3638, 0.0000, 0.0000, 0.0000, 0.0000, 0.0000, 0.0000, 0.0000, 0.0000, 0.0000, 0.0000,0.0,0.0,0.0,1705312801576,10:00:01.576
139, -37.7548, -67.1960, -52.2318, -50.6304, -69.9579, -38.0346, -50.7558, -11.4673, 0.0000, 0.0000, 0.0000, 0.0000, 0.0000, 0.0000, 0.0000, 0.0000, 0.0000, 0.0000,0.0,0.0,0.0,1705312801580,10:00:01.580
140, -35.9164, -62.0111, -56.3643, -50.1502, -81.6745, -44.2196, -58.8939, -17.1726, 0.0000, 0.0000, 0.0000, 0.0000, 0.0000, 0.0000, 0.0000, 0.0000, 0.0000, 0.0000,0.0,0.0,0.0,1705312801584,10:00:01.584
141, -58.9808, -72.6904, -78.1207, -67.7937, -76.9692, -43.2544, -64.1962, -28.1903, 0.0000, 0.0000, 0.0000, 0.0000, 0.0000, 0.0000, 0.0000, 0.0000, 0.0000, 0.0000,0.0,0.0,0.0,1705312801588,10:00:01.588
142, -64.9574, -77.2603, -89.9465, -81.5710, -52.3651, -34.2552, -60.9120, -31.8915, 0.0000, 0.0000, 0.0000, 0.0000, 0.0000, 0.0000, 0.0000, 0.0000, 0.0000, 0.0000,0.0,0.0,0.0,1705312801592,10:00:01.592
143, -40.5701, -56.9944, -65.0564, -64.8947, -37.3755, -28.7897, -54.4391, -25.3944, 0.0000, 0.0000, 0.0000, 0.0000, 0.0000, 0.0000, 0.0000, 0.0000, 0.0000, 0.0000,0.0,0.0,0.0,1705312801596,10:00:01.596
144, -27.0000, -33.0000, -32.0000, -36.0000, -40.0000, -26.0000, -49.0000, -15.0000, 0.0000, 0.0000, 0.0000, 0.0000, 0.0000, 0.0000, 0.0000, 0.0000, 0.0000, 0.0000,0.0,0.0,0.0,1705312801600,10:00:01.600
145, -32.5507, -26.4368, -18.5697, -22.9478, -35.7091, -16.6895, -40.7071, -3.3384, 0.0000, 0.0000, 0.0000, 0.0000, 0.0000, 0.0000, 0.0000, 0.0000, 0.0000, 0.0000,0.0,0.0,0.0,1705312801604,10:00:01.604
146, -27.5470, -24.0441, -8.4118, -18.9672, -19.3614, -5.9171, -28.3108, 12.6480, 0.0000, 0.0000, 0.0000, 0.0000, 0.0000, 0.0000, 0.0000, 0.0000, 0.0000, 0.0000,0.0,0.0,0.0,1705312801608,10:00:01.608
147, -13.3469, -13.4017, 9.8635, -7.8432, -6.0910, -2.1493, -16.2773, 31.7413, 0.0000, 0.0000, 0.0000, 0.0000, 0.0000, 0.0000, 0.0000, 0.0000, 0.0000, 0.0000,0.0,0.0,0.0,1705312801612,10:00:01.612
148, -6.4105, -6.9304, 21.0332, 5.6431, -0.2470, -0.2764, -7.9399, 47.0126, 0.0000, 0.0000, 0.0000, 0.0000, 0.0000, 0.0000, 0.0000, 0.0000, 0.0000, 0.0000,0.0,0.0,0.0,1705312801616,10:00:01.616
149, -0.8037, -12.5837, 20.1290, 10.2959, -1.0203, 2.4881, -4.5255, 54.4561, 0.0000, 0.0000, 0.0000, 0.0000, 0.0000, 0.0000, 0.0000, 0.0000, 0.0000, 0.0000,0.0,0.0,0.0,1705312801620,10:00:01.620
150, 7.2768, -18.8042, 20.5259, 7.0514, -6.8811, -2.3389, -6.7015, 53.6198, 0.0000, 0.0000, 0.0000, 0.0000, 0.0000, 0.0000, 0.0000, 0.0000, 0.0000, 0.0000,0.0,0.0,0.0,1705312801624,10:00:01.624
151, 13.5294, -16.2481, 28.8797, 4.0038, -7.7557, -13.2638, -12.8539, 43.8979, 0.0000, 0.0000, 0.0000, 0.0000, 0.0000, 0.0000, 0.0000, 0.0000, 0.0000, 0.0000,0.0,0.0,0.0,1705312801628,10:00:01.628
152, 20.2287, -9.9892, 36.9646, 4.1244, -0.4925, -16.7673, -18.9419, 29.3154, 0.0000, 0.0000, 0.0000, 0.0000, 0.0000, 0.0000, 0.0000, 0.0000, 0.0000, 0.0000,0.0,0.0,0.0,1705312801632,10:00:01.632
153, 22.0625, -7.3811, 36.5818, 4.0983, 3.5112, -11.8979, -21.3724, 18.8078, 0.0000, 0.0000, 0.0000, 0.0000, 0.0000, 0.0000, 0.0000, 0.0000, 0.0000, 0.0000,0.0,0.0,0.0,1705312801636,10:00:01.636
154, 15.8083, -4.9262, 33.3319, 5.3334, 2.0736, -7.4774, -18.6950, 16.3899, 0.0000, 0.0000, 0.0000, 0.0000, 0.0000, 0.0000, 0.0000, 0.0000, 0.0000, 0.0000,0.0,0.0,0.0,1705312801640,10:00:01.640
155, 21.0091, 7.0998, 38.6671, 16.0100, 10.0036, -1.4726, -10.3066, 20.4083, 0.0000, 0.0000, 0.0000, 0.0000, 0.0000, 0.0000, 0.0000, 0.0000, 0.0000, 0.0000,0.0,0.0,0.0,1705312801644,10:00:01.644
156, 45.2868, 27.3618, 52.8485, 34.2968, 32.3225, 7.0601, 2.6792, 28.8328, 0.0000, 0.0000, 0.0000, 0.0000, 0.0000, 0.0000, 0.0000, 0.0000, 0.0000, 0.0000,0.0,0.0,0.0,1705312801648,10:00:01.648
157, 63.8062, 41.2298, 65.1587, 43.2341, 48.8217, 4.5107, 13.6798, 35.5059, 0.0000, 0.0000, 0.0000, 0.0000, 0.0000, 0.0000, 0.0000, 0.0000, 0.0000, 0.0000,0.0,0.0,0.0,1705312801652,10:00:01.652
158, 61.5824, 41.2754, 66.3149, 34.8285, 41.9967, -11.9236, 16.0991, 32.5157, 0.0000, 0.0000, 0.0000, 0.0000, 0.0000, 0.0000, 0.0000, 0.0000, 0.0000, 0.0000,0.0,0.0,0.0,1705312801656,10:00:01.656
159, 52.6020, 38.0095, 59.3259, 24.0482, 27.9230, -23.0486, 14.1432, 22.5546, 0.0000, 0.0000, 0.0000, 0.0000, 0.0000, 0.0000, 0.0000, 0.0000, 0.0000, 0.0000,0.0,0.0,0.0,1705312801660,10:00:01.660
160, 52.0389, 42.8103, 57.6129, 24.1785, 32.2463, -19.5261, 16.7469, 14.4202, 0.0000, 0.0000, 0.0000, 0.0000, 0.0000, 0.0000, 0.0000, 0.0000, 0.0000, 0.0000,0.0,0.0,0.0,1705312801664,10:00:01.664
161, 57.5016, 51.0624, 63.2336, 27.1156, 50.6572, -14.1356, 23.7118, 8.3275, 0.0000, 0.0000, 0.0000, 0.0000, 0.0000, 0.0000, 0.0000, 0.0000, 0.0000, 0.0000,0.0,0.0,0.0,1705312801668,10:00:01.668
162, 54.5106, 52.3605, 63.3832, 24.4432, 64.9264, -17.0045, 29.2102, 0.1525, 0.0000, 0.0000, 0.0000, 0.0000, 0.0000, 0.0000, 0.0000, 0.0000, 0.0000, 0.0000,0.0,0.0,0.0,1705312801672,10:00:01.672
163, 40.1693, 47.6297, 57.5316, 21.3836, 68.6857, -25.2076, 29.2814, -9.4693, 0.0000, 0.0000, 0.0000, 0.0000, 0.0000, 0.0000, 0.0000, 0.0000, 0.0000, 0.0000,0.0,0.0,0.0,1705312801676,10:00:01.676
164, 31.2595, 41.1150, 50.9908, 15.8512, 54.3280, -33.5537, 19.4731, -21.1672, 0.0000, 0.0000, 0.0000, 0.0000, 0.0000, 0.0000, 0.0000, 0.0000, 0.0000, 0.0000,0.0,0.0,0.0,1705312801680,10:00:01.680
165, 31.3284, 27.7604, 31.7334, 0.5412, 19.4412, -42.0158, -0.8690, -39.3062, 0.0000, 0.0000, 0.0000, 0.0000, 0.0000, 0.0000, 0.0000, 0.0000, 0.0000, 0.0000,0.0,0.0,0.0,1705312801684,10:00:01.684
166, 24.5866, 7.5337, 1.6253, -13.0155, -13.0079, -54.8352, -23.6688, -63.0065, 0.0000, 0.0000, 0.0000, 0.0000, 0.0000, 0.0000, 0.0000, 0.0000, 0.0000, 0.0000,0.0,0.0,0.0,1705312801688,10:00:01.688
167, 13.3283, -5.0648, -11.4897, -15.3905, -25.2339, -65.6779, -41.5665, -82.8592, 0.0000, 0.0000, 0.0000, 0.0000, 0.0000, 0.0000, 0.0000, 0.0000, 0.0000, 0.0000,0.0,0.0,0.0,1705312801692,10:00:01.692
168, 10.7581, 0.2785, -6.0581, -17.9645, -24.4625, -52.7750, -50.8555, -86.2228, 0.0000, 0.0000, 0.0000, 0.0000, 0.0000, 0.0000, 0.0000, 0.0000, 0.0000, 0.0000,0.0,0.0,0.0,1705312801696,10:00:01.696
169, 13.0000, 21.0000, -1.0000, -14.0000, -12.0000, -17.0000, -46.0000, -68.0000, 0.0000, 0.0000, 0.0000, 0.0000, 0.0000, 0.0000, 0.0000, 0.0000, 0.0000, 0.0000,0.0,0.0,0.0,1705312801700,10:00:01.700
170, 17.9343, 45.0963, 10.8508, 15.1526, 8.4895, 0.8531, -29.9682, -42.0402, 0.0000, 0.0000, 0.0000, 0.0000, 0.0000, 0.0000, 0.0000, 0.0000, 0.0000, 0.0000,0.0,0.0,0.0,1705312801704,10:00:01.704
171, 26.2787, 48.3367, 25.7518, 39.1693, 9.8367, -18.4787, -18.3648, -30.7548, 0.0000, 0.0000, 0.0000, 0.0000, 0.0000, 0.0000, 0.0000, 0.0000, 0.0000, 0.0000,0.0,0.0,0.0,1705312801708,10:00:01.708
172, 21.8868, 22.6929, 12.6238, 18.7130, -7.6079, -36.8867, -17.7100, -37.6335, 0.0000, 0.0000, 0.0000, 0.0000, 0.0000, 0.0000, 0.0000, 0.0000, 0.0000, 0.0000,0.0,0.0,0.0,1705312801712,10:00:01.712
173, 5.2032, 4.2903, -13.7599, -13.0609, -3.8884, -25.0330, -19.5687, -46.7271, 0.0000, 0.0000, 0.0000, 0.0000, 0.0000, 0.0000, 0.0000, 0.0000, 0.0000, 0.0000,0.0,0.0,0.0,1705312801716,10:00:01.716
174, 2.3600, 16.9292, -10.4256, -10.9414, 19.6320, -9.1463, -20.3715, -49.3212, 0.0000, 0.0000, 0.0000, 0.0000, 0.0000, 0.0000, 0.0000, 0.0000, 0.0000, 0.0000,0.0,0.0,0.0,1705312801720,10:00:01.720
175, 9.8304, 25.5635, 4.7285, 1.7618, 18.0143, -19.1125, -23.7214, -51.0181, 0.0000, 0.0000, 0.0000, 0.0000, 0.0000, 0.0000, 0.0000, 0.0000, 0.0000, 0.0000,0.0,0.0,0.0,1705312801724,10:00:01.724
176, 4.8111, 8.9103, -3.3215, -3.3192, -10.6066, -43.5819, -29.2130, -56.1516, 0.0000, 0.0000, 0.0000, 0.0000, 0.0000, 0.0000, 0.0000, 0.0000, 0.0000, 0.0000,0.0,0.0,0.0,1705312801728,10:00:01.728
177, -0.9278, 3.4908, -13.4149, -6.3029, -28.4721, -57.0916, -35.1281, -61.9107, 0.0000, 0.0000, 0.0000, 0.0000, 0.0000, 0.0000, 0.0000, 0.0000, 0.0000, 0.0000,0.0,0.0,0.0,1705312801732,10:00:01.732
178, 8.5450, 24.4853, -5.0365, 3.3428, -26.1429, -53.9587, -40.5778, -64.2385, 0.0000, 0.0000, 0.0000, 0.0000, 0.0000, 0.0000, 0.0000, 0.0000, 0.0000, 0.0000,0.0,0.0,0.0,1705312801736,10:00:01.736
179, 16.4863, 36.6550, 1.7991, 5.1180, -23.2934, -47.6477, -43.6794, -62.9751, 0.0000, 0.0000, 0.0000, 0.0000, 0.0000, 0.0000, 0.0000, 0.0000, 0.0000, 0.0000,0.0,0.0,0.0,1705312801740,10:00:01.740
180, 9.1977, 26.0693, -4.6955, -9.1686, -35.2326, -51.5556, -48.5135, -63.1568, 0.0000, 0.0000, 0.0000, 0.0000, 0.0000, 0.0000, 0.0000, 0.0000, 0.0000, 0.0000,0.0,0.0,0.0,1705312801744,10:00:01.744
181, -5.4611, 15.1698, -19.8790, -26.6221, -58.3337, -60.6728, -61.2043, -68.0729, 0.0000, 0.0000, 0.0000, 0.0000, 0.0000, 0.0000, 0.0000, 0.0000, 0.0000, 0.0000,0.0,0.0,0.0,1705312801748,10:00:01.748
182, -16.5542, 14.6704, -40.0941, -30.3298, -70.0468, -59.9140, -75.6666, -73.0910, 0.0000, 0.0000, 0.0000, 0.0000, 0.0000, 0.0000, 0.0000, 0.0000, 0.0000, 0.0000,0.0,0.0,0.0,1705312801752,10:00:01.752
183, -18.9867, 14.3366, -50.0416, -17.8043, -63.4339, -51.4050, -82.7745, -74.0333, 0.0000, 0.0000, 0.0000, 0.0000, 0.0000, 0.0000, 0.0000, 0.0000, 0.0000, 0.0000,0.0,0.0,0.0,1705312801756,10:00:01.756
184, -23.0342, 2.1079, -44.2507, -15.7001, -66.4199, -50.0652, -85.8536, -73.2272, 0.0000, 0.0000, 0.0000, 0.0000, 0.0000, 0.0000, 0.0000, 0.0000, 0.0000, 0.0000,0.0,0.0,0.0,1705312801760,10:00:01.760
185, -38.2250, -18.2389, -45.5940, -39.7393, -86.7352, -54.1747, -88.8963, -70.3837, 0.0000, 0.0000, 0.0000, 0.0000, 0.0000, 0.0000, 0.0000, 0.0000, 0.0000, 0.0000,0.0,0.0,0.0,1705312801764,10:00:01.764
186, -42.4607, -22.4056, -57.7196, -55.9425, -88.6360, -49.2377, -86.4106, -61.3265, 0.0000, 0.0000, 0.0000, 0.0000, 0.0000, 0.0000, 0.0000, 0.0000, 0.0000, 0.0000,0.0,0.0,0.0,1705312801768,10:00:01.768
187, -21.6362, -2.5314, -55.4380, -38.5378, -61.2447, -36.2074, -76.8978, -48.7648, 0.0000, 0.0000, 0.0000, 0.0000, 0.0000, 0.0000, 0.0000, 0.0000, 0.0000, 0.0000,0.0,0.0,0.0,1705312801772,10:00:01.772
188, -8.4422, 12.7238, -38.9575, -16.0714, -42.0505, -31.2711, -68.4801, -40.7354, 0.0000, 0.0000, 0.0000, 0.0000, 0.0000, 0.0000, 0.0000, 0.0000, 0.0000, 0.0000,0.0,0.0,0.0,1705312801776,10:00:01.776
189, -21.5991, 6.2160, -32.4543, -14.9981, -53.7159, -41.9056, -67.6620, -41.1484, 0.0000, 0.0000, 0.0000, 0.0000, 0.0000, 0.0000, 0.0000, 0.0000, 0.0000, 0.0000,0.0,0.0,0.0,1705312801780,10:00:01.780
190, -33.7584, -6.4012, -41.0906, -26.5317, -74.9304, -56.9411, -73.5192, -49.4445, 0.0000, 0.0000, 0.0000, 0.0000, 0.0000, 0.0000, 0.0000, 0.0000, 0.0000, 0.0000,0.0,0.0,0.0,1705312801784,10:00:01.784
191, -29.9996, -13.5541, -52.0142, -39.4741, -75.5089, -60.6598, -79.4701, -61.4611, 0.0000, 0.0000, 0.0000, 0.0000, 0.0000, 0.0000, 0.0000, 0.0000, 0.0000, 0.0000,0.0,0.0,0.0,1705312801788,10:00:01.788
192, -20.5094, -12.8800, -52.8786, -45.6628, -54.0357, -54.4179, -79.0047, -70.5411, 0.0000, 0.0000, 0.0000, 0.0000, 0.0000, 0.0000, 0.0000, 0.0000, 0.0000, 0.0000,0.0,0.0,0.0,1705312801792,10:00:01.792
193, -11.0128, -2.0914, -42.2526, -39.3209, -39.6510, -54.9361, -74.3434, -75.5576, 0.0000, 0.0000, 0.0000, 0.0000, 0.0000, 0.0000, 0.0000, 0.0000, 0.0000, 0.0000,0.0,0.0,0.0,1705312801796,10:00:01.796
194, -13.0000, 3.0000, -37.0000, -37.0000, -48.0000, -65.0000, -73.0000, -80.0000, 0.0000, 0.0000, 0.0000, 0.0000, 0.0000, 0.0000, 0.0000, 0.0000, 0.0000, 0.0000,0.0,0.0,0.0,1705312801800,10:00:01.800
195, -32.6782, -12.3604, -48.9742, -52.5663, -56.0184, -67.1552, -74.8894, -80.7535, 0.0000, 0.0000, 0.0000, 0.0000, 0.0000, 0.0000, 0.0000, 0.0000, 0.0000, 0.0000,0.0,0.0,0.0,1705312801804,10:00:01.804
196, -46.7487, -30.6836, -62.9004, -68.3667, -48.5537, -56.9241, -74.1251, -71.9273, 0.0000, 0.0000, 0.0000, 0.0000, 0.0000, 0.0000, 0.0000, 0.0000, 0.0000, 0.0000,0.0,0.0,0.0,1705312801808,10:00:01.808
197, -44.3522, -36.6469, -65.1922, -70.3196, -41.3874, -50.9461, -70.4393, -56.8971, 0.0000, 0.0000, 0.0000, 0.0000, 0.0000, 0.0000, 0.0000, 0.0000, 0.0000, 0.0000,0.0,0.0,0.0,1705312801812,10:00:01.812
198, -48.1588, -41.1912, -64.7430, -67.9348, -38.0061, -53.0241, -68.0856, -42.9740, 0.0000, 0.0000, 0.0000, 0.0000, 0.0000, 0.0000, 0.0000, 0.0000, 0.0000, 0.0000,0.0,0.0,0.0,1705312801816,10:00:01.816
199, -62.1296, -47.6096, -68.3327, -66.4368, -30.8319, -47.9680, -68.1731, -31.6869, 0.0000, 0.0000, 0.0000, 0.0000, 0.0000, 0.0000, 0.0000, 0.0000, 0.0000, 0.0000,0.0,0.0,0.0,1705312801820,10:00:01.820
200, -64.9241, -48.3494, -71.5226, -63.7250, -32.9535, -32.7401, -68.2820, -22.6876, 0.0000, 0.0000, 0.0000, 0.0000, 0.0000, 0.0000, 0.0000, 0.0000, 0.0000, 0.0000,0.0,0.0,0.0,1705312801824,10:00:01.824
201, -54.4777, -47.8519, -73.1386, -60.4275, -46.0422, -21.8520, -66.1665, -17.7372, 0.0000, 0.0000, 0.0000, 0.0000, 0.0000, 0.0000, 0.0000, 0.0000, 0.0000, 0.0000,0.0,0.0,0.0,1705312801828,10:00:01.828
202, -46.1187, -49.1012, -74.0908, -53.3263, -46.6251, -24.3953, -62.2200, -17.0971, 0.0000, 0.0000, 0.0000, 0.0000, 0.0000, 0.0000, 0.0000, 0.0000, 0.0000, 0.0000,0.0,0.0,0.0,1705312801832,10:00:01.832
203, -47.5028, -47.2292, -74.0389, -46.9510, -35.5667, -34.2513, -58.3674, -17.5042, 0.0000, 0.0000, 0.0000, 0.0000, 0.0000, 0.0000, 0.0000, 0.0000, 0.0000, 0.0000,0.0,0.0,0.0,1705312801836,10:00:01.836
204, -54.1800, -44.3456, -73.7972, -54.8737, -32.1037, -38.1103, -54.4867, -14.9416, 0.0000, 0.0000, 0.0000, 0.0000, 0.0000, 0.0000, 0.0000, 0.0000, 0.0000, 0.0000,0.0,0.0,0.0,1705312801840,10:00:01.840
205, -53.6120, -41.7769, -70.6455, -67.3901, -32.9911, -32.6016, -49.6960, -10.8363, 0.0000, 0.0000, 0.0000, 0.0000, 0.0000, 0.0000, 0.0000, 0.0000, 0.0000, 0.0000,0.0,0.0,0.0,1705312801844,10:00:01.844
206, -45.6402, -37.6928, -63.5626, -61.7257, -32.9798, -30.9942, -45.5435, -12.3872, 0.0000, 0.0000, 0.0000, 0.0000, 0.0000, 0.0000, 0.0000, 0.0000, 0.0000, 0.0000,0.0,0.0,0.0,1705312801848,10:00:01.848
207, -49.0114, -38.1142, -60.2238, -44.3130, -34.5524, -37.2238, -42.4996, -20.2639, 0.0000, 0.0000, 0.0000, 0.0000, 0.0000, 0.0000, 0.0000, 0.0000, 0.0000, 0.0000,0.0,0.0,0.0,1705312801852,10:00:01.852
208, -63.3552, -40.2090, -60.1985, -33.4457, -26.8938, -34.6445, -39.1776, -26.7039, 0.0000, 0.0000, 0.0000, 0.0000, 0.0000, 0.0000, 0.0000, 0.0000, 0.0000, 0.0000,0.0,0.0,0.0,1705312801856,10:00:01.856
209, -62.3917, -28.5540, -51.1263, -26.2266, -13.8100, -23.4876, -38.4797, -32.6975, 0.0000, 0.0000, 0.0000, 0.0000, 0.0000, 0.0000, 0.0000, 0.0000, 0.0000, 0.0000,0.0,0.0,0.0,1705312801860,10:00:01.860
210, -40.6377, -7.2601, -35.3818, -18.2974, -14.9652, -24.0429, -43.1311, -45.5432, 0.0000, 0.0000, 0.0000, 0.0000, 0.0000, 0.0000, 0.0000, 0.0000, 0.0000, 0.0000,0.0,0.0,0.0,1705312801864,10:00:01.864
211, -20.2288, 3.7221, -27.5184, -14.4899, -11.7116, -29.4894, -46.2747, -57.2414, 0.0000, 0.0000, 0.0000, 0.0000, 0.0000, 0.0000, 0.0000, 0.0000, 0.0000, 0.0000,0.0,0.0,0.0,1705312801868,10:00:01.868
212, -14.3185, 0.9682, -24.3499, -10.0180, 14.6272, -21.0509, -42.3585, -55.4414, 0.0000, 0.0000, 0.0000, 0.0000, 0.0000, 0.0000, 0.0000, 0.0000, 0.0000, 0.0000,0.0,0.0,0.0,1705312801872,10:00:01.872
213, -16.5839, -5.3510, -17.1866, -2.4648, 20.9437, -15.2584, -40.4246, -48.9206, 0.0000, 0.0000, 0.0000, 0.0000, 0.0000, 0.0000, 0.0000, 0.0000, 0.0000, 0.0000,0.0,0.0,0.0,1705312801876,10:00:01.876
214, -13.4257, -5.3906, -16.6450, -4.7010, -13.5653, -23.7997, -48.5827, -50.0765, 0.0000, 0.0000, 0.0000, 0.0000, 0.0000, 0.0000, 0.0000, 0.0000, 0.0000, 0.0000,0.0,0.0,0.0,1705312801880,10:00:01.880
215, 0.0364, 5.3309, -23.9576, -14.9705, -31.4065, -18.3051, -57.2364, -50.2464, 0.0000, 0.0000, 0.0000, 0.0000, 0.0000, 0.0000, 0.0000, 0.0000, 0.0000, 0.0000,0.0,0.0,0.0,1705312801884,10:00:01.884
216, 10.6415, 14.3705, -15.6964, -11.4274, -8.4694, 4.4177, -55.2071, -40.4675, 0.0000, 0.0000, 0.0000, 0.0000, 0.0000, 0.0000, 0.0000, 0.0000, 0.0000, 0.0000,0.0,0.0,0.0,1705312801888,10:00:01.888
217, 9.5722, 9.2183, 4.9264, 5.3548, 4.3145, 5.2510, -47.9522, -31.0421, 0.0000, 0.0000, 0.0000, 0.0000, 0.0000, 0.0000, 0.0000, 0.0000, 0.0000, 0.0000,0.0,0.0,0.0,1705312801892,10:00:01.892
218, 6.9248, 6.0495, 2.3537, 9.9978, -12.0911, -17.2835, -45.0763, -31.0631, 0.0000, 0.0000, 0.0000, 0.0000, 0.0000, 0.0000, 0.0000, 0.0000, 0.0000, 0.0000,0.0,0.0,0.0,1705312801896,10:00:01.896
219, 3.0000, 20.0000, -19.0000, 0.0000, -21.0000, -24.0000, -44.0000, -34.0000, 0.0000, 0.0000, 0.0000, 0.0000, 0.0000, 0.0000, 0.0000, 0.0000, 0.0000, 0.0000,0.0,0.0,0.0,1705312801900,10:00:01.900
220, -13.4259, 32.8968, -17.9237, -0.1865, -7.6169, -9.0365, -37.5920, -32.0822, 0.0000, 0.0000, 0.0000, 0.0000, 0.0000, 0.0000, 0.0000, 0.0000, 0.0000, 0.0000,0.0,0.0,0.0,1705312801904,10:00:01.904
221, -28.3765, 30.8628, 3.3588, 16.3015, 6.9547, 2.3398, -27.9345, -26.3520, 0.0000, 0.0000, 0.0000, 0.0000, 0.0000, 0.0000, 0.0000, 0.0000, 0.0000, 0.0000,0.0,0.0,0.0,1705312801908,10:00:01.908
222, -18.6899, 28.6522, 12.0696, 31.0697, 5.3314, 0.8246, -23.8506, -22.1907, 0.0000, 0.0000, 0.0000, 0.0000, 0.0000, 0.0000, 0.0000, 0.0000, 0.0000, 0.0000,0.0,0.0,0.0,1705312801912,10:00:01.912
223, 2.1495, 32.6269, 10.5285, 32.4469, -7.0825, -7.4736, -28.0524, -22.6324, 0.0000, 0.0000, 0.0000, 0.0000, 0.0000, 0.0000, 0.0000, 0.0000, 0.0000, 0.0000,0.0,0.0,0.0,1705312801916,10:00:01.916
224, 5.7977, 29.9821, 10.8786, 23.3699, -10.1357, -14.7050, -33.1098, -24.3109, 0.0000, 0.0000, 0.0000, 0.0000, 0.0000, 0.0000, 0.0000, 0.0000, 0.0000, 0.0000,0.0,0.0,0.0,1705312801920,10:00:01.920
225, -2.8131, 21.2695, 4.4134, 9.4009, -2.6560, -17.2317, -32.7222, -23.9146, 0.0000, 0.0000, 0.0000, 0.0000, 0.0000, 0.0000, 0.0000, 0.0000, 0.0000, 0.0000,0.0,0.0,0.0,1705312801924,10:00:01.924
226, -3.1215, 20.6844, -1.5563, -1.8927, -7.5076, -23.4243, -29.7006, -26.7460, 0.0000, 0.0000, 0.0000, 0.0000, 0.0000, 0.0000, 0.0000, 0.0000, 0.0000, 0.0000,0.0,0.0,0.0,1705312801928,10:00:01.928
227, -3.1955, 25.3992, 5.8156, -6.6240, -21.9819, -34.7753, -26.0545, -35.8022, 0.0000, 0.0000, 0.0000, 0.0000, 0.0000, 0.0000, 0.0000, 0.0000, 0.0000, 0.0000,0.0,0.0,0.0,1705312801932,10:00:01.932
228, -22.6383, 17.2510, 7.3001, -11.4301, -17.2781, -33.8883, -16.4644, -40.0528, 0.0000, 0.0000, 0.0000, 0.0000, 0.0000, 0.0000, 0.0000, 0.0000, 0.0000, 0.0000,0.0,0.0,0.0,1705312801936,10:00:01.936
229, -46.5359, -2.9189, -6.2030, -17.2363, 1.8886, -19.5264, -1.7538, -30.6926, 0.0000, 0.0000, 0.0000, 0.0000, 0.0000, 0.0000, 0.0000, 0.0000, 0.0000, 0.0000,0.0,0.0,0.0,1705312801940,10:00:01.940
230, -47.4068, -11.9523, -11.9126, -13.3906, 3.2756, -14.1737, 4.9529, -17.3570, 0.0000, 0.0000, 0.0000, 0.0000, 0.0000, 0.0000, 0.0000, 0.0000, 0.0000, 0.0000,0.0,0.0,0.0,1705312801944,10:00:01.944
231, -38.1857, -5.1658, -9.9374, -1.6200, -16.8800, -21.0869, -3.6950, -12.9734, 0.0000, 0.0000, 0.0000, 0.0000, 0.0000, 0.0000, 0.0000, 0.0000, 0.0000, 0.0000,0.0,0.0,0.0,1705312801948,10:00:01.948
232, -43.2583, -4.9052, -19.2668, 2.1857, -32.2577, -21.5100, -17.4921, -15.4514, 0.0000, 0.0000, 0.0000, 0.0000, 0.0000, 0.0000, 0.0000, 0.0000, 0.0000, 0.0000,0.0,0.0,0.0,1705312801952,10:00:01.952
233, -46.4776, -16.3553, -30.6864, -4.5258, -20.6687, -10.7890, -22.1489, -15.2138, 0.0000, 0.0000, 0.0000, 0.0000, 0.0000, 0.0000, 0.0000, 0.0000, 0.0000, 0.0000,0.0,0.0,0.0,1705312801956,10:00:01.956
234, -31.4432, -19.7482, -28.8115, -8.5169, 10.8179, -0.4024, -15.0168, -9.8787, 0.0000, 0.0000, 0.0000, 0.0000, 0.0000, 0.0000, 0.0000, 0.0000, 0.0000, 0.0000,0.0,0.0,0.0,1705312801960,10:00:01.960
235, -21.9604, -11.5357, -16.5296, -3.1359, 24.8823, 1.8522, -4.0845, -4.0910, 0.0000, 0.0000, 0.0000, 0.0000, 0.0000, 0.0000, 0.0000, 0.0000, 0.0000, 0.0000,0.0,0.0,0.0,1705312801964,10:00:01.964
236, -32.3167, -7.5538, 0.3648, 4.2662, 2.9460, -0.7931, 2.4986, -1.2242, 0.0000, 0.0000, 0.0000, 0.0000, 0.0000, 0.0000, 0.0000, 0.0000, 0.0000, 0.0000,0.0,0.0,0.0,1705312801968,10:00:01.968
237, -43.6188, -13.0395, 6.0289, 4.7814, -23.1369, 1.1892, 2.9626, -0.7196, 0.0000, 0.0000, 0.0000, 0.0000, 0.0000, 0.0000, 0.0000, 0.0000, 0.0000, 0.0000,0.0,0.0,0.0,1705312801972,10:00:01.972
238, -47.7641, -20.5305, -11.7066, 1.3543, -25.7080, 7.2591, 0.2477, -1.1099, 0.0000, 0.0000, 0.0000, 0.0000, 0.0000, 0.0000, 0.0000, 0.0000, 0.0000, 0.0000,0.0,0.0,0.0,1705312801976,10:00:01.976
239, -49.2016, -20.5085, -24.9584, 2.7326, -16.7630, 6.7005, -1.3694, -0.6921, 0.0000, 0.0000, 0.0000, 0.0000, 0.0000, 0.0000, 0.0000, 0.0000, 0.0000, 0.0000,0.0,0.0,0.0,1705312801980,10:00:01.980
240, -40.7202, -9.9361, -11.2679, 5.5894, -8.3179, 1.1166, 1.4453, 2.6025, 0.0000, 0.0000, 0.0000, 0.0000, 0.0000, 0.0000, 0.0000, 0.0000, 0.0000, 0.0000,0.0,0.0,0.0,1705312801984,10:00:01.984
241, -25.4279, -4.3147, -1.2389, 1.0099, -5.4907, -3.8346, 5.1641, 6.2105, 0.0000, 0.0000, 0.0000, 0.0000, 0.0000, 0.0000, 0.0000, 0.0000, 0.0000, 0.0000,0.0,0.0,0.0,1705312801988,10:00:01.988
242, -22.8972, -17.7782, -16.7979, -8.1648, -22.3004, -16.8956, -0.1098, 2.9787, 0.0000, 0.0000, 0.0000, 0.0000, 0.0000, 0.0000, 0.0000, 0.0000, 0.0000, 0.0000,0.0,0.0,0.0,1705312801992,10:00:01.992
243, -33.6565, -32.9666, -34.6764, -16.7183, -45.1971, -32.5858, -14.5885, -6.6678, 0.0000, 0.0000, 0.0000, 0.0000, 0.0000, 0.0000, 0.0000, 0.0000, 0.0000, 0.0000,0.0,0.0,0.0,1705312801996,10:00:01.996
244, -40.0000, -30.0000, -40.0000, -24.0000, -37.0000, -25.0000, -23.0000, -11.0000, 0.0000, 0.0000, 0.0000, 0.0000, 0.0000, 0.0000, 0.0000, 0.0000, 0.0000, 0.0000,0.0,0.0,0.0,1705312802000,10:00:02.000
245, -39.0384, -22.6126, -38.5190, -24.2455, -6.5137, -0.2815, -14.8013, -2.7551, 0.0000, 0.0000, 0.0000, 0.0000, 0.0000, 0.0000, 0.0000, 0.0000, 0.0000, 0.0000,0.0,0.0,0.0,1705312802004,10:00:02.004
246, -42.8469, -27.5300, -31.1532, -18.8427, 2.9976, 6.2524, 3.3559, 10.6655, 0.0000, 0.0000, 0.0000, 0.0000, 0.0000, 0.0000, 0.0000, 0.0000, 0.0000, 0.0000,0.0,0.0,0.0,1705312802008,10:00:02.008
247, -53.7007, -35.4695, -24.2715, -21.8445, -11.8904, -8.0857, 20.3137, 17.8156, 0.0000, 0.0000, 0.0000, 0.0000, 0.0000, 0.0000, 0.0000, 0.0000, 0.0000, 0.0000,0.0,0.0,0.0,1705312802012,10:00:02.012
248, -60.4557, -37.5484, -25.5287, -31.5032, -24.3306, -18.4993, 29.7928, 15.4031, 0.0000, 0.0000, 0.0000, 0.0000, 0.0000, 0.0000, 0.0000, 0.0000, 0.0000, 0.0000,0.0,0.0,0.0,1705312802016,10:00:02.016
249, -61.3990, -42.5283, -28.9866, -35.9189, -29.6072, -20.2626, 28.3242, 7.0079, 0.0000, 0.0000, 0.0000, 0.0000, 0.0000, 0.0000, 0.0000, 0.0000, 0.0000, 0.0000,0.0,0.0,0.0,1705312802020,10:00:02.020
250, -68.2738, -55.6053, -34.5201, -42.8385, -38.1755, -22.2816, 18.0107, -3.4159, 0.0000, 0.0000, 0.0000, 0.0000, 0.0000, 0.0000, 0.0000, 0.0000, 0.0000, 0.0000,0.0,0.0,0.0,1705312802024,10:00:02.024
251, -76.8577, -65.2375, -45.6427, -55.3351, -48.8199, -24.9701, 7.0820, -12.8253, 0.0000, 0.0000, 0.0000, 0.0000, 0.0000, 0.0000, 0.0000, 0.0000, 0.0000, 0.0000,0.0,0.0,0.0,1705312802028,10:00:02.028
252, -72.3001, -59.9976, -51.1038, -55.7898, -51.5424, -27.5663, 1.4046, -17.3185, 0.0000, 0.0000, 0.0000, 0.0000, 0.0000, 0.0000, 0.0000, 0.0000, 0.0000, 0.0000,0.0,0.0,0.0,1705312802032,10:00:02.032
253, -67.0482, -48.8282, -47.0698, -47.1483, -42.1904, -31.3822, 1.6115, -15.8360, 0.0000, 0.0000, 0.0000, 0.0000, 0.0000, 0.0000, 0.0000, 0.0000, 0.0000, 0.0000,0.0,0.0,0.0,1705312802036,10:00:02.036
254, -74.6144, -48.1137, -41.1347, -47.1959, -28.8412, -35.7139, 6.4122, -15.4660, 0.0000, 0.0000, 0.0000, 0.0000, 0.0000, 0.0000, 0.0000, 0.0000, 0.0000, 0.0000,0.0,0.0,0.0,1705312802040,10:00:02.040
255, -72.1537, -53.1603, -30.1570, -45.4769, -19.5008, -39.1147, 12.3134, -23.7485, 0.0000, 0.0000, 0.0000, 0.0000, 0.0000, 0.0000, 0.0000, 0.0000, 0.0000, 0.0000,0.0,0.0,0.0,1705312802044,10:00:02.044
0, -54.6761, -51.0656, -20.8166, -32.4687, -10.9979, -37.2717, 15.5259, -35.9361, 0.0000, 0.0000, 0.0000, 0.0000, 0.0000, 0.0000, 0.0000, 0.0000, 0.0000, 0.0000,0.0,0.0,0.0,1705312802048,10:00:02.048
1, -57.4963, -48.8113, -29.6432, -28.2245, -5.2754, -31.0757, 15.9197, -42.0260, 0.0000, 0.0000, 0.0000, 0.0000, 0.0000, 0.0000, 0.0000, 0.0000, 0.0000, 0.0000,0.0,0.0,0.0,1705312802052,10:00:02.052
2, -78.1253, -55.4245, -41.7349, -38.3006, -14.8269, -35.1536, 13.3318, -43.8024, 0.0000, 0.0000, 0.0000, 0.0000, 0.0000, 0.0000, 0.0000, 0.0000, 0.0000, 0.0000,0.0,0.0,0.0,1705312802056,10:00:02.056
3, -79.2495, -63.6428, -41.3838, -47.3115, -35.9966, -52.7294, 4.8610, -49.7892, 0.0000, 0.0000, 0.0000, 0.0000, 0.0000, 0.0000, 0.0000, 0.0000, 0.0000, 0.0000,0.0,0.0,0.0,1705312802060,10:00:02.060
4, -71.7262, -68.3997, -51.4591, -57.7626, -46.4559, -59.7438, -7.6741, -57.2214, 0.0000, 0.0000, 0.0000, 0.0000, 0.0000, 0.0000, 0.0000, 0.0000, 0.0000, 0.0000,0.0,0.0,0.0,1705312802064,10:00:02.064
5, -81.0153, -67.4424, -74.3170, -71.4906, -36.3101, -43.8348, -15.5563, -55.5600, 0.0000, 0.0000, 0.0000, 0.0000, 0.0000, 0.0000, 0.0000, 0.0000, 0.0000, 0.0000,0.0,0.0,0.0,1705312802068,10:00:02.068
6, -81.5008, -55.6104, -75.8209, -72.3524, -19.5854, -29.8036, -14.9961, -45.3062, 0.0000, 0.0000, 0.0000, 0.0000, 0.0000, 0.0000, 0.0000, 0.0000, 0.0000, 0.0000,0.0,0.0,0.0,1705312802072,10:00:02.072
7, -58.8728, -48.0646, -59.0788, -66.4355, -15.6784, -39.1904, -12.7052, -37.8984, 0.0000, 0.0000, 0.0000, 0.0000, 0.0000, 0.0000, 0.0000, 0.0000, 0.0000, 0.0000,0.0,0.0,0.0,1705312802076,10:00:02.076
8, -49.1484, -63.7915, -53.0907, -76.9153, -22.6179, -54.7938, -13.1438, -37.1394, 0.0000, 0.0000, 0.0000, 0.0000, 0.0000, 0.0000, 0.0000, 0.0000, 0.0000, 0.0000,0.0,0.0,0.0,1705312802080,10:00:02.080
9, -61.6853, -81.6290, -49.9658, -93.8947, -15.7140, -49.9688, -10.3794, -34.6197, 0.0000, 0.0000, 0.0000, 0.0000, 0.0000, 0.0000, 0.0000, 0.0000, 0.0000, 0.0000,0.0,0.0,0.0,1705312802084,10:00:02.084
10, -64.1755, -76.4190, -36.0532, -91.4661, 6.3662, -30.7555, -1.9238, -25.6939, 0.0000, 0.0000, 0.0000, 0.0000, 0.0000, 0.0000, 0.0000, 0.0000, 0.0000, 0.0000,0.0,0.0,0.0,1705312802088,10:00:02.088
11, -54.6523, -66.4173, -25.7339, -74.7581, 5.0947, -21.9963, 1.5715, -16.5433, 0.0000, 0.0000, 0.0000, 0.0000, 0.0000, 0.0000, 0.0000, 0.0000, 0.0000, 0.0000,0.0,0.0,0.0,1705312802092,10:00:02.092
12, -58.6485, -66.9759, -26.2526, -65.4666, -29.6928, -25.4267, -7.4140, -11.8368, 0.0000, 0.0000, 0.0000, 0.0000, 0.0000, 0.0000, 0.0000, 0.0000, 0.0000, 0.0000,0.0,0.0,0.0,1705312802096,10:00:02.096
13, -71.0000, -62.0000, -32.0000, -67.0000, -53.0000, -25.0000, -21.0000, -9.0000, 0.0000, 0.0000, 0.0000, 0.0000, 0.0000, 0.0000, 0.0000, 0.0000, 0.0000, 0.0000,0.0,0.0,0.0,1705312802100,10:00:02.100
14, -67.1067, -51.8044, -42.5825, -68.0224, -44.3194, -22.7224, -30.3739, -7.6654, 0.0000, 0.0000, 0.0000, 0.0000, 0.0000, 0.0000, 0.0000, 0.0000, 0.0000, 0.0000,0.0,0.0,0.0,1705312802104,10:00:02.104
15, -51.3937, -53.3150, -49.9432, -63.8309, -37.7032, -31.1473, -36.4450, -11.2607, 0.0000, 0.0000, 0.0000, 0.0000, 0.0000, 0.0000, 0.0000, 0.0000, 0.0000, 0.0000,0.0,0.0,0.0,1705312802108,10:00:02.108
16, -49.6686, -60.4159, -47.4008, -61.7387, -50.2013, -44.7030, -39.9353, -18.2033, 0.0000, 0.0000, 0.0000, 0.0000, 0.0000, 0.0000, 0.0000, 0.0000, 0.0000, 0.0000,0.0,0.0,0.0,1705312802112,10:00:02.112
17, -64.9516, -63.8863, -49.2157, -66.2256, -57.1302, -50.4886, -37.1334, -22.6901, 0.0000, 0.0000, 0.0000, 0.0000, 0.0000, 0.0000, 0.0000, 0.0000, 0.0000, 0.0000,0.0,0.0,0.0,1705312802116,10:00:02.116
18, -73.6706, -68.3538, -60.4476, -68.9566, -42.5444, -47.2919, -27.4085, -22.5493, 0.0000, 0.0000, 0.0000, 0.0000, 0.0000, 0.0000, 0.0000, 0.0000, 0.0000, 0.0000,0.0,0.0,0.0,1705312802120,10:00:02.120
19, -62.7735, -64.1505, -59.7942, -61.9214, -20.1018, -39.7488, -14.8776, -20.3295, 0.0000, 0.0000, 0.0000, 0.0000, 0.0000, 0.0000, 0.0000, 0.0000, 0.0000, 0.0000,0.0,0.0,0.0,1705312802124,10:00:02.124
20, -43.2769, -43.0628, -39.5156, -50.5162, -11.6837, -35.6732, -5.5905, -20.8846, 0.0000, 0.0000, 0.0000, 0.0000, 0.0000, 0.0000, 0.0000, 0.0000, 0.0000, 0.0000,0.0,0.0,0.0,1705312802128,10:00:02.128
21, -32.2600, -30.9065, -25.2750, -47.5559, -24.4680, -41.7246, -4.4338, -27.6921, 0.0000, 0.0000, 0.0000, 0.0000, 0.0000, 0.0000, 0.0000, 0.0000, 0.0000, 0.0000,0.0,0.0,0.0,1705312802132,10:00:02.132
22, -42.3784, -47.3569, -40.0585, -58.4162, -40.7550, -49.3422, -9.6701, -36.7853, 0.0000, 0.0000, 0.0000, 0.0000, 0.0000, 0.0000, 0.0000, 0.0000, 0.0000, 0.0000,0.0,0.0,0.0,1705312802136,10:00:02.136
23, -71.2216, -70.0724, -67.5673, -70.9617, -41.3858, -49.0365, -15.5717, -40.3008, 0.0000, 0.0000, 0.0000, 0.0000, 0.0000, 0.0000, 0.0000, 0.0000, 0.0000, 0.0000,0.0,0.0,0.0,1705312802140,10:00:02.140
24, -92.5721, -75.8942, -71.2498, -70.6483, -35.9166, -50.3400, -21.4110, -38.9306, 0.0000, 0.0000, 0.0000, 0.0000, 0.0000, 0.0000, 0.0000, 0.0000, 0.0000, 0.0000,0.0,0.0,0.0,1705312802144,10:00:02.144
25, -86.9856, -71.2520, -51.6631, -66.0124, -42.3772, -57.3300, -28.6698, -40.7959, 0.0000, 0.0000, 0.0000, 0.0000, 0.0000, 0.0000, 0.0000, 0.0000, 0.0000, 0.0000,0.0,0.0,0.0,1705312802148,10:00:02.148
26, -69.3297, -67.5052, -44.7785, -69.3520, -54.9225, -54.6584, -34.4638, -48.0194, 0.0000, 0.0000, 0.0000, 0.0000, 0.0000, 0.0000, 0.0000, 0.0000, 0.0000, 0.0000,0.0,0.0,0.0,1705312802152,10:00:02.152
27, -59.2978, -67.7646, -55.4023, -67.5968, -59.9471, -41.6976, -36.8988, -55.6042, 0.0000, 0.0000, 0.0000, 0.0000, 0.0000, 0.0000, 0.0000, 0.0000, 0.0000, 0.0000,0.0,0.0,0.0,1705312802156,10:00:02.156
28, -58.2287, -75.7521, -59.1690, -56.3419, -60.5439, -36.8405, -39.1811, -60.8048, 0.0000, 0.0000, 0.0000, 0.0000, 0.0000, 0.0000, 0.0000, 0.0000, 0.0000, 0.0000,0.0,0.0,0.0,1705312802160,10:00:02.160
29, -65.9924, -88.5363, -63.3129, -60.6180, -65.4497, -40.1221, -44.2571, -63.8592, 0.0000, 0.0000, 0.0000, 0.0000, 0.0000, 0.0000, 0.0000, 0.0000, 0.0000, 0.0000,0.0,0.0,0.0,1705312802164,10:00:02.164
30, -77.6971, -92.0659, -83.1425, -80.3923, -70.9546, -37.2616, -50.9608, -63.5527, 0.0000, 0.0000, 0.0000, 0.0000, 0.0000, 0.0000, 0.0000, 0.0000, 0.0000, 0.0000,0.0,0.0,0.0,1705312802168,10:00:02.168
31, -79.0026, -82.9385, -94.8059, -84.0982, -65.0498, -31.9504, -53.7476, -59.1397, 0.0000, 0.0000, 0.0000, 0.0000, 0.0000, 0.0000, 0.0000, 0.0000, 0.0000, 0.0000,0.0,0.0,0.0,1705312802172,10:00:02.172
32, -76.1630, -78.2036, -84.6400, -75.7245, -49.1073, -35.9239, -47.7905, -53.9412, 0.0000, 0.0000, 0.0000, 0.0000, 0.0000, 0.0000, 0.0000, 0.0000, 0.0000, 0.0000,0.0,0.0,0.0,1705312802176,10:00:02.176
33, -85.0257, -86.8711, -78.7933, -84.4051, -44.6331, -45.4089, -39.1439, -53.5576, 0.0000, 0.0000, 0.0000, 0.0000, 0.0000, 0.0000, 0.0000, 0.0000, 0.0000, 0.0000,0.0,0.0,0.0,1705312802180,10:00:02.180
34, -86.9688, -92.5473, -82.7047, -98.9813, -60.1421, -52.8684, -39.8540, -60.5429, 0.0000, 0.0000, 0.0000, 0.0000, 0.0000, 0.0000, 0.0000, 0.0000, 0.0000, 0.0000,0.0,0.0,0.0,1705312802184,10:00:02.184
35, -64.6744, -84.7072, -75.3694, -93.2508, -71.2433, -61.2627, -50.5996, -71.3478, 0.0000, 0.0000, 0.0000, 0.0000, 0.0000, 0.0000, 0.0000, 0.0000, 0.0000, 0.0000,0.0,0.0,0.0,1705312802188,10:00:02.188
36, -50.2700, -80.0898, -64.4309, -79.7636, -63.6891, -72.2519, -63.4813, -80.6792, 0.0000, 0.0000, 0.0000, 0.0000, 0.0000, 0.0000, 0.0000, 0.0000, 0.0000, 0.0000,0.0,0.0,0.0,1705312802192,10:00:02.192
37, -63.4418, -89.4731, -66.5872, -80.1627, -60.2019, -78.1121, -76.0560, -88.0407, 0.0000, 0.0000, 0.0000, 0.0000, 0.0000, 0.0000, 0.0000, 0.0000, 0.0000, 0.0000,0.0,0.0,0.0,1705312802196,10:00:02.196
38, -68.0000, -97.0000, -67.0000, -88.0000, -73.0000, -73.0000, -86.0000, -95.0000, 0.0000, 0.0000, 0.0000, 0.0000, 0.0000, 0.0000, 0.0000, 0.0000, 0.0000, 0.0000,0.0,0.0,0.0,1705312802200,10:00:02.200
39, -51.2814, -91.7365, -55.7361, -89.7059, -80.9985, -60.8166, -86.2654, -99.1172, 0.0000, 0.0000, 0.0000, 0.0000, 0.0000, 0.0000, 0.0000, 0.0000, 0.0000, 0.0000,0.0,0.0,0.0,1705312802204,10:00:02.204
40, -49.8955, -81.2473, -50.5107, -83.5112, -76.3509, -49.7361, -77.7789, -97.7919, 0.0000, 0.0000, 0.0000, 0.0000, 0.0000, 0.0000, 0.0000, 0.0000, 0.0000, 0.0000,0.0,0.0,0.0,1705312802208,10:00:02.208
41, -61.8126, -68.0156, -55.5167, -73.2651, -73.9829, -44.3424, -68.9601, -92.7820, 0.0000, 0.0000, 0.0000, 0.0000, 0.0000, 0.0000, 0.0000, 0.0000, 0.0000, 0.0000,0.0,0.0,0.0,1705312802212,10:00:02.212
42, -49.2695, -51.2811, -54.6059, -65.2352, -71.3533, -41.8675, -61.1252, -85.4416, 0.0000, 0.0000, 0.0000, 0.0000, 0.0000, 0.0000, 0.0000, 0.0000, 0.0000, 0.0000,0.0,0.0,0.0,1705312802216,10:00:02.216
43, -26.6968, -41.0345, -46.2636, -62.3855, -58.0450, -37.2942, -52.2585, -75.9414, 0.0000, 0.0000, 0.0000, 0.0000, 0.0000, 0.0000, 0.0000, 0.0000, 0.0000, 0.0000,0.0,0.0,0.0,1705312802220,10:00:02.220
44, -24.8544, -38.3409, -38.9325, -56.9938, -45.1195, -32.0771, -45.3886, -67.0723, 0.0000, 0.0000, 0.0000, 0.0000, 0.0000, 0.0000, 0.0000, 0.0000, 0.0000, 0.0000,0.0,0.0,0.0,1705312802224,10:00:02.224
45, -14.5601, -28.2147, -28.7332, -40.5213, -34.9389, -26.7841, -38.4063, -57.1742, 0.0000, 0.0000, 0.0000, 0.0000, 0.0000, 0.0000, 0.0000, 0.0000, 0.0000, 0.0000,0.0,0.0,0.0,1705312802228,10:00:02.228
46, 23.4228, -11.1900, -11.4290, -17.9801, -7.0317, -12.2533, -21.9734, -37.2588, 0.0000, 0.0000, 0.0000, 0.0000, 0.0000, 0.0000, 0.0000, 0.0000, 0.0000, 0.0000,0.0,0.0,0.0,1705312802232,10:00:02.232
47, 40.4092, -6.7629, 6.9713, -4.0251, 32.0179, 10.9773, 3.9842, -7.7043, 0.0000, 0.0000, 0.0000, 0.0000, 0.0000, 0.0000, 0.0000, 0.0000, 0.0000, 0.0000,0.0,0.0,0.0,1705312802236,10:00:02.236
48, 14.4560, -18.4596, 21.5828, -5.6590, 48.3317, 23.9983, 28.8982, 17.4749, 0.0000, 0.0000, 0.0000, 0.0000, 0.0000, 0.0000, 0.0000, 0.0000, 0.0000, 0.0000,0.0,0.0,0.0,1705312802240,10:00:02.240
49, -8.6038, -29.4038, 29.1480, -13.3686, 40.2555, 21.6810, 45.7586, 30.4850, 0.0000, 0.0000, 0.0000, 0.0000, 0.0000, 0.0000, 0.0000, 0.0000, 0.0000, 0.0000,0.0,0.0,0.0,1705312802244,10:00:02.244
50, -7.5366, -31.9401, 24.1034, -14.9198, 28.2695, 17.2706, 50.4790, 32.0903, 0.0000, 0.0000, 0.0000, 0.0000, 0.0000, 0.0000, 0.0000, 0.0000, 0.0000, 0.0000,0.0,0.0,0.0,1705312802248,10:00:02.248
51, -7.4319, -36.0390, 8.2779, -14.3216, 7.8070, 7.3276, 36.1185, 16.5059, 0.0000, 0.0000, 0.0000, 0.0000, 0.0000, 0.0000, 0.0000, 0.0000, 0.0000, 0.0000,0.0,0.0,0.0,1705312802252,10:00:02.252
52, -16.3832, -49.0159, -9.8988, -23.9963, -24.1060, -17.2584, 3.3714, -19.3521, 0.0000, 0.0000, 0.0000, 0.0000, 0.0000, 0.0000, 0.0000, 0.0000, 0.0000, 0.0000,0.0,0.0,0.0,1705312802256,10:00:02.256
53, -26.0094, -63.0887, -26.9837, -41.8056, -46.8778, -39.8327, -33.7913, -60.6984, 0.0000, 0.0000, 0.0000, 0.0000, 0.0000, 0.0000, 0.0000, 0.0000, 0.0000, 0.0000,0.0,0.0,0.0,1705312802260,10:00:02.260
54, -37.7155, -69.7197, -42.6387, -54.9120, -60.2400, -45.3426, -62.2365, -90.0679, 0.0000, 0.0000, 0.0000, 0.0000, 0.0000, 0.0000, 0.0000, 0.0000, 0.0000, 0.0000,0.0,0.0,0.0,1705312802264,10:00:02.264
55, -48.6386, -75.2788, -56.5134, -62.4894, -78.2327, -42.6509, -77.6700, -103.1641, 0.0000, 0.0000, 0.0000, 0.0000, 0.0000, 0.0000, 0.0000, 0.0000, 0.0000, 0.0000,0.0,0.0,0.0,1705312802268,10:00:02.268
56, -53.6756, -85.9084, -68.6838, -71.3482, -82.0882, -39.0861, -79.2303, -103.0627, 0.0000, 0.0000, 0.0000, 0.0000, 0.0000, 0.0000, 0.0000, 0.0000, 0.0000, 0.0000,0.0,0.0,0.0,1705312802272,10:00:02.272
57, -56.7505, -91.0831, -72.8542, -76.3287, -61.1779, -40.6102, -72.0739, -97.9233, 0.0000, 0.0000, 0.0000, 0.0000, 0.0000, 0.0000, 0.0000, 0.0000, 0.0000, 0.0000,0.0,0.0,0.0,1705312802276,10:00:02.276
58, -58.2165, -85.1825, -67.1912, -72.9004, -55.6619, -56.8601, -68.9674, -98.4809, 0.0000, 0.0000, 0.0000, 0.0000, 0.0000, 0.0000, 0.0000, 0.0000, 0.0000, 0.0000,0.0,0.0,0.0,1705312802280,10:00:02.280
59, -57.2067, -80.4656, -68.9160, -73.9747, -82.7436, -70.2449, -73.9781, -102.8402, 0.0000, 0.0000, 0.0000, 0.0000, 0.0000, 0.0000, 0.0000, 0.0000, 0.0000, 0.0000,0.0,0.0,0.0,1705312802284,10:00:02.284
60, -55.5422, -78.3799, -82.5207, -84.2370, -96.4538, -57.2775, -75.5888, -98.8168, 0.0000, 0.0000, 0.0000, 0.0000, 0.0000, 0.0000, 0.0000, 0.0000, 0.0000, 0.0000,0.0,0.0,0.0,1705312802288,10:00:02.288
61, -44.6807, -66.0779, -81.4363, -86.0955, -73.2241, -39.0612, -65.7124, -84.4966, 0.0000, 0.0000, 0.0000, 0.0000, 0.0000, 0.0000, 0.0000, 0.0000, 0.0000, 0.0000,0.0,0.0,0.0,1705312802292,10:00:02.292
62, -24.8717, -48.7141, -59.7100, -75.0194, -47.9745, -37.9024, -50.0030, -67.4331, 0.0000, 0.0000, 0.0000, 0.0000, 0.0000, 0.0000, 0.0000, 0.0000, 0.0000, 0.0000,0.0,0.0,0.0,1705312802296,10:00:02.296
63, -18.0000, -41.0000, -46.0000, -66.0000, -43.0000, -33.0000, -36.0000, -52.0000, 0.0000, 0.0000, 0.0000, 0.0000, 0.0000, 0.0000, 0.0000, 0.0000, 0.0000, 0.0000,0.0,0.0,0.0,1705312802300,10:00:02.300
64, -26.4007, -40.8187, -46.2154, -58.9559, -45.6404, -17.1142, -27.2773, -42.2443, 0.0000, 0.0000, 0.0000, 0.0000, 0.0000, 0.0000, 0.0000, 0.0000, 0.0000, 0.0000,0.0,0.0,0.0,1705312802304,10:00:02.304
65, -31.1254, -47.0885, -45.5573, -48.7273, -51.0907, -14.2063, -27.1636, -42.0067, 0.0000, 0.0000, 0.0000, 0.0000, 0.0000, 0.0000, 0.0000, 0.0000, 0.0000, 0.0000,0.0,0.0,0.0,1705312802308,10:00:02.308
66, -34.9836, -64.6309, -52.1253, -48.8212, -60.2377, -22.3568, -35.6154, -47.3169, 0.0000, 0.0000, 0.0000, 0.0000, 0.0000, 0.0000, 0.0000, 0.0000, 0.0000, 0.0000,0.0,0.0,0.0,1705312802312,10:00:02.312
67, -43.8707, -76.3553, -68.5939, -60.4870, -59.4557, -22.8295, -46.3072, -51.7188, 0.0000, 0.0000, 0.0000, 0.0000, 0.0000, 0.0000, 0.0000, 0.0000, 0.0000, 0.0000,0.0,0.0,0.0,1705312802316,10:00:02.316
68, -43.1925, -66.1157, -71.5348, -63.1288, -47.0140, -18.8772, -51.9070, -53.0167, 0.0000, 0.0000, 0.0000, 0.0000, 0.0000, 0.0000, 0.0000, 0.0000, 0.0000, 0.0000,0.0,0.0,0.0,1705312802320,10:00:02.320
69, -34.3916, -54.9280, -60.2098, -56.1579, -43.3762, -15.7449, -49.5459, -50.7841, 0.0000, 0.0000, 0.0000, 0.0000, 0.0000, 0.0000, 0.0000, 0.0000, 0.0000, 0.0000,0.0,0.0,0.0,1705312802324,10:00:02.324
70, -31.2012, -60.4813, -55.4720, -54.5092, -51.6625, -14.9297, -42.6931, -49.1048, 0.0000, 0.0000, 0.0000, 0.0000, 0.0000, 0.0000, 0.0000, 0.0000, 0.0000, 0.0000,0.0,0.0,0.0,1705312802328,10:00:02.328
71, -25.0582, -64.7674, -52.9126, -54.6906, -51.8673, -24.3663, -37.1814, -54.5810, 0.0000, 0.0000, 0.0000, 0.0000, 0.0000, 0.0000, 0.0000, 0.0000, 0.0000, 0.0000,0.0,0.0,0.0,1705312802332,10:00:02.332
72, -12.7621, -57.7696, -43.1494, -51.1212, -41.4267, -30.1953, -33.0674, -63.2160, 0.0000, 0.0000, 0.0000, 0.0000, 0.0000, 0.0000, 0.0000, 0.0000, 0.0000, 0.0000,0.0,0.0,0.0,1705312802336,10:00:02.336
73, -9.3273, -52.2157, -37.7935, -48.6910, -34.5014, -11.9762, -26.6413, -65.1942, 0.0000, 0.0000, 0.0000, 0.0000, 0.0000, 0.0000, 0.0000, 0.0000, 0.0000, 0.0000,0.0,0.0,0.0,1705312802340,10:00:02.340
74, -10.9651, -48.6830, -36.7554, -43.4748, -30.7168, 7.5377, -19.6429, -60.6146, 0.0000, 0.0000, 0.0000, 0.0000, 0.0000, 0.0000, 0.0000, 0.0000, 0.0000, 0.0000,0.0,0.0,0.0,1705312802344,10:00:02.344
75, -8.6070, -43.3498, -27.2752, -34.6392, -26.7883, 3.4699, -15.9670, -52.4082, 0.0000, 0.0000, 0.0000, 0.0000, 0.0000, 0.0000, 0.0000, 0.0000, 0.0000, 0.0000,0.0,0.0,0.0,1705312802348,10:00:02.348
76, -11.6340, -45.1545, -16.6169, -34.2106, -28.4799, -1.5949, -13.9683, -37.9216, 0.0000, 0.0000, 0.0000, 0.0000, 0.0000, 0.0000, 0.0000, 0.0000, 0.0000, 0.0000,0.0,0.0,0.0,1705312802352,10:00:02.352
77, -16.0998, -50.0013, -15.8371, -37.1490, -24.8794, 7.4383, -11.1857, -21.7602, 0.0000, 0.0000, 0.0000, 0.0000, 0.0000, 0.0000, 0.0000, 0.0000, 0.0000, 0.0000,0.0,0.0,0.0,1705312802356,10:00:02.356
78, -8.1371, -44.2605, -17.6582, -28.7816, -2.5119, 9.1725, -8.2830, -16.1455, 0.0000, 0.0000, 0.0000, 0.0000, 0.0000, 0.0000, 0.0000, 0.0000, 0.0000, 0.0000,0.0,0.0,0.0,1705312802360,10:00:02.360
79, 1.6712, -37.8966, -16.3215, -20.1304, 16.6066, 1.4650, -4.0410, -21.7142, 0.0000, 0.0000, 0.0000, 0.0000, 0.0000, 0.0000, 0.0000, 0.0000, 0.0000, 0.0000,0.0,0.0,0.0,1705312802364,10:00:02.364
80, 2.3012, -44.1913, -15.1575, -24.5579, 12.1266, 4.9208, 4.0924, -26.1749, 0.0000, 0.0000, 0.0000, 0.0000, 0.0000, 0.0000, 0.0000, 0.0000, 0.0000, 0.0000,0.0,0.0,0.0,1705312802368,10:00:02.368
81, 1.2938, -50.7139, -13.9087, -29.2422, 4.2882, 15.5686, 14.5072, -20.9611, 0.0000, 0.0000, 0.0000, 0.0000, 0.0000, 0.0000, 0.0000, 0.0000, 0.0000, 0.0000,0.0,0.0,0.0,1705312802372,10:00:02.372
82, -1.0487, -47.8882, -13.1223, -26.0095, 7.0136, 15.9075, 22.5688, -8.7550, 0.0000, 0.0000, 0.0000, 0.0000, 0.0000, 0.0000, 0.0000, 0.0000, 0.0000, 0.0000,0.0,0.0,0.0,1705312802376,10:00:02.376
83, -6.7893, -46.8227, -17.0572, -26.8848, 7.5182, 9.7603, 25.2333, 1.9020, 0.0000, 0.0000, 0.0000, 0.0000, 0.0000, 0.0000, 0.0000, 0.0000, 0.0000, 0.0000,0.0,0.0,0.0,1705312802380,10:00:02.380
84, -8.5769, -51.1105, -22.1725, -34.2476, 8.1752, 10.9101, 23.4593, 6.8577, 0.0000, 0.0000, 0.0000, 0.0000, 0.0000, 0.0000, 0.0000, 0.0000, 0.0000, 0.0000,0.0,0.0,0.0,1705312802384,10:00:02.384
85, -8.0387, -50.4360, -19.0323, -35.5680, 15.9501, 17.6984, 20.6597, 9.2484, 0.0000, 0.0000, 0.0000, 0.0000, 0.0000, 0.0000, 0.0000, 0.0000, 0.0000, 0.0000,0.0,0.0,0.0,1705312802388,10:00:02.388
86, -7.8947, -43.2088, -9.0352, -28.7162, 17.2570, 17.7423, 17.2955, 9.1861, 0.0000, 0.0000, 0.0000, 0.0000, 0.0000, 0.0000, 0.0000, 0.0000, 0.0000, 0.0000,0.0,0.0,0.0,1705312802392,10:00:02.392
87, -1.6024, -36.7527, -5.4064, -24.4072, 13.3609, 11.3702, 11.2705, 1.9482, 0.0000, 0.0000, 0.0000, 0.0000, 0.0000, 0.0000, 0.0000, 0.0000, 0.0000, 0.0000,0.0,0.0,0.0,1705312802396,10:00:02.396
88, 5.0000, -32.0000, -10.0000, -24.0000, 20.0000, 11.0000, 5.0000, -9.0000, 0.0000, 0.0000, 0.0000, 0.0000, 0.0000, 0.0000, 0.0000, 0.0000, 0.0000, 0.0000,0.0,0.0,0.0,1705312802400,10:00:02.400
